Header Size:	 78	 
Pulse Version:	 42	 
Decimal Symbol:	.	 
Date Format:	dd-MM-yyyy	 
Time Format:	HH:mm:ss:mmm	 
Data Type:	Real	 
Slice:	False	 
Z-Axis type:	Linear	 
Z-Axis size:	1	 
Z-Axis unit:	 	 
Z-Axis first value:	 0.0000000000e+000	 
Z-Axis delta:	 1.0000000000e+000	 
X-Axis type:	Linear	 
X-Axis size:	3201	 
X-Axis unit:	Hz	 
X-Axis first value:	 7.5000000000e+001	 
X-Axis delta:	 6.2500000000e-002	 
	 	 
AmplitudeUnit:	Pa	 
Analyzer:	FFT_Spectrum_Averaging	 
AnalyzerName:	FFT Analyzer	 
	 	 
	 	 
Bipolar:	False	 
CenterFrequency:	 1.7500000000e+002	 
	 	 
	 	 
	 	 
	 	 
dBReference:	 4.0000000000e-010	 
	 	 
	 	 
	 	 
Domain:	1	 
Function:	Autospectrum	 
	 	 
InputRange:	 2.2376582278e+002	 
	 	 
	 	 
MultiBufferName:	Input	 
NBW:	 1.5000000000e+000	 
	 	 
OverlapFailed:	False	 
Overrun:	False	 
Power:	True	 
PowerUnit:	Pa²	 
	 	 
RecordLength:	 1.6000000000e+001	 
ReducedSize:	True	 
	 	 
	 	 
	 	 
	 	 
	 	 
SamplingRatio:	 1.2800000000e+000	 
Signal:	p_B_source	 
	 	 
SignalUnit:	Pa	 
	 	 
	 	 
	 	 
Title:	Autospectrum(p_B_source) - Input	 
Title1:	Working : Input : Input : FFT Analyzer	 
	 	 
	 	 
Weight:	0	 
ZoomOn:	True	 
	 	 
TemplateName:	Working	 
MeasurementName:	Input	 
MeasurementSlice:	False	 
	 	 
DeltaFrequency:	 6.2500000000e-002	 
	 	 
EnvelopeOn:	False	 
	 	 
	 	 
	 	 
Z-index:	 	1
Date:	 	05-03-2025
Time:	 	12:03:30:043
Relative time:	 	 0.00000e+000
Z-axis:	 	 0.0000000000e+000
1	 7.5000000000e+001	 8.20858e-004
2	 7.5062500000e+001	 5.49635e-004
3	 7.5125000000e+001	 1.07245e-003
4	 7.5187500000e+001	 1.45954e-003
5	 7.5250000000e+001	 1.17915e-003
6	 7.5312500000e+001	 1.51611e-003
7	 7.5375000000e+001	 1.96929e-003
8	 7.5437500000e+001	 1.44285e-003
9	 7.5500000000e+001	 1.13375e-003
10	 7.5562500000e+001	 7.38397e-004
11	 7.5625000000e+001	 9.16407e-004
12	 7.5687500000e+001	 1.30846e-003
13	 7.5750000000e+001	 2.95353e-003
14	 7.5812500000e+001	 3.06696e-003
15	 7.5875000000e+001	 1.27503e-003
16	 7.5937500000e+001	 2.59292e-003
17	 7.6000000000e+001	 2.00153e-003
18	 7.6062500000e+001	 8.20851e-004
19	 7.6125000000e+001	 8.37049e-004
20	 7.6187500000e+001	 4.55874e-004
21	 7.6250000000e+001	 8.53717e-004
22	 7.6312500000e+001	 1.08804e-003
23	 7.6375000000e+001	 1.06199e-003
24	 7.6437500000e+001	 1.20920e-003
25	 7.6500000000e+001	 9.84954e-004
26	 7.6562500000e+001	 6.12318e-004
27	 7.6625000000e+001	 7.06833e-004
28	 7.6687500000e+001	 7.26864e-004
29	 7.6750000000e+001	 9.80898e-004
30	 7.6812500000e+001	 1.01757e-003
31	 7.6875000000e+001	 1.05885e-003
32	 7.6937500000e+001	 6.99927e-004
33	 7.7000000000e+001	 3.23943e-004
34	 7.7062500000e+001	 6.00431e-004
35	 7.7125000000e+001	 7.26236e-004
36	 7.7187500000e+001	 9.32181e-004
37	 7.7250000000e+001	 1.48346e-003
38	 7.7312500000e+001	 1.76162e-003
39	 7.7375000000e+001	 7.10605e-004
40	 7.7437500000e+001	 1.02167e-003
41	 7.7500000000e+001	 5.98657e-004
42	 7.7562500000e+001	 1.09475e-004
43	 7.7625000000e+001	 3.47028e-004
44	 7.7687500000e+001	 1.28512e-003
45	 7.7750000000e+001	 1.72040e-003
46	 7.7812500000e+001	 1.64773e-003
47	 7.7875000000e+001	 8.66931e-004
48	 7.7937500000e+001	 4.86246e-004
49	 7.8000000000e+001	 1.88243e-004
50	 7.8062500000e+001	 2.33445e-004
51	 7.8125000000e+001	 7.14076e-004
52	 7.8187500000e+001	 1.10321e-003
53	 7.8250000000e+001	 1.02196e-003
54	 7.8312500000e+001	 8.51085e-004
55	 7.8375000000e+001	 1.51852e-003
56	 7.8437500000e+001	 1.72740e-003
57	 7.8500000000e+001	 1.26938e-003
58	 7.8562500000e+001	 7.21054e-004
59	 7.8625000000e+001	 8.85058e-004
60	 7.8687500000e+001	 9.01539e-004
61	 7.8750000000e+001	 1.08835e-003
62	 7.8812500000e+001	 1.12619e-003
63	 7.8875000000e+001	 1.45304e-003
64	 7.8937500000e+001	 7.24867e-004
65	 7.9000000000e+001	 4.48543e-004
66	 7.9062500000e+001	 7.94282e-004
67	 7.9125000000e+001	 3.10279e-004
68	 7.9187500000e+001	 6.81949e-004
69	 7.9250000000e+001	 1.71145e-003
70	 7.9312500000e+001	 1.07179e-003
71	 7.9375000000e+001	 9.89083e-004
72	 7.9437500000e+001	 7.50264e-004
73	 7.9500000000e+001	 9.83240e-004
74	 7.9562500000e+001	 3.28873e-004
75	 7.9625000000e+001	 1.25896e-003
76	 7.9687500000e+001	 2.92627e-003
77	 7.9750000000e+001	 1.94827e-003
78	 7.9812500000e+001	 8.22256e-004
79	 7.9875000000e+001	 7.62747e-004
80	 7.9937500000e+001	 6.61971e-004
81	 8.0000000000e+001	 7.41762e-004
82	 8.0062500000e+001	 5.68796e-004
83	 8.0125000000e+001	 7.71361e-004
84	 8.0187500000e+001	 1.62571e-003
85	 8.0250000000e+001	 1.45996e-003
86	 8.0312500000e+001	 8.94306e-004
87	 8.0375000000e+001	 5.10418e-004
88	 8.0437500000e+001	 7.72933e-004
89	 8.0500000000e+001	 1.74515e-003
90	 8.0562500000e+001	 1.11425e-003
91	 8.0625000000e+001	 1.53383e-003
92	 8.0687500000e+001	 1.16720e-003
93	 8.0750000000e+001	 1.02854e-003
94	 8.0812500000e+001	 1.08994e-003
95	 8.0875000000e+001	 1.86821e-003
96	 8.0937500000e+001	 1.37348e-003
97	 8.1000000000e+001	 3.53110e-004
98	 8.1062500000e+001	 4.18544e-004
99	 8.1125000000e+001	 6.99714e-004
100	 8.1187500000e+001	 7.25718e-004
101	 8.1250000000e+001	 1.08232e-003
102	 8.1312500000e+001	 8.59616e-004
103	 8.1375000000e+001	 7.34630e-004
104	 8.1437500000e+001	 5.47436e-004
105	 8.1500000000e+001	 9.59762e-004
106	 8.1562500000e+001	 1.52272e-003
107	 8.1625000000e+001	 1.30261e-003
108	 8.1687500000e+001	 1.05821e-003
109	 8.1750000000e+001	 1.62398e-003
110	 8.1812500000e+001	 1.66963e-003
111	 8.1875000000e+001	 1.59116e-003
112	 8.1937500000e+001	 8.46905e-004
113	 8.2000000000e+001	 4.98314e-004
114	 8.2062500000e+001	 9.27178e-004
115	 8.2125000000e+001	 1.78110e-003
116	 8.2187500000e+001	 2.42214e-003
117	 8.2250000000e+001	 2.18067e-003
118	 8.2312500000e+001	 2.68269e-003
119	 8.2375000000e+001	 1.79939e-003
120	 8.2437500000e+001	 1.12746e-003
121	 8.2500000000e+001	 6.90119e-004
122	 8.2562500000e+001	 1.23593e-003
123	 8.2625000000e+001	 1.17137e-003
124	 8.2687500000e+001	 1.02372e-003
125	 8.2750000000e+001	 1.29504e-003
126	 8.2812500000e+001	 1.81148e-003
127	 8.2875000000e+001	 2.08485e-003
128	 8.2937500000e+001	 7.06773e-004
129	 8.3000000000e+001	 9.96182e-004
130	 8.3062500000e+001	 8.09739e-004
131	 8.3125000000e+001	 5.73301e-004
132	 8.3187500000e+001	 8.86144e-004
133	 8.3250000000e+001	 9.69352e-004
134	 8.3312500000e+001	 9.93014e-004
135	 8.3375000000e+001	 1.60561e-003
136	 8.3437500000e+001	 1.89785e-003
137	 8.3500000000e+001	 1.10548e-003
138	 8.3562500000e+001	 7.52534e-004
139	 8.3625000000e+001	 1.18350e-003
140	 8.3687500000e+001	 1.41733e-003
141	 8.3750000000e+001	 1.21197e-003
142	 8.3812500000e+001	 9.56188e-004
143	 8.3875000000e+001	 1.18751e-003
144	 8.3937500000e+001	 1.43409e-003
145	 8.4000000000e+001	 1.04503e-003
146	 8.4062500000e+001	 5.23680e-004
147	 8.4125000000e+001	 6.78044e-004
148	 8.4187500000e+001	 7.02698e-004
149	 8.4250000000e+001	 1.22370e-003
150	 8.4312500000e+001	 1.76305e-003
151	 8.4375000000e+001	 6.87096e-004
152	 8.4437500000e+001	 6.91167e-004
153	 8.4500000000e+001	 8.04412e-004
154	 8.4562500000e+001	 1.46187e-003
155	 8.4625000000e+001	 1.00093e-003
156	 8.4687500000e+001	 2.29140e-003
157	 8.4750000000e+001	 3.04975e-003
158	 8.4812500000e+001	 2.20595e-003
159	 8.4875000000e+001	 1.60518e-003
160	 8.4937500000e+001	 1.02331e-003
161	 8.5000000000e+001	 9.50606e-004
162	 8.5062500000e+001	 1.10093e-003
163	 8.5125000000e+001	 1.06304e-003
164	 8.5187500000e+001	 1.18861e-003
165	 8.5250000000e+001	 3.96264e-004
166	 8.5312500000e+001	 1.75651e-004
167	 8.5375000000e+001	 8.55285e-004
168	 8.5437500000e+001	 1.00302e-003
169	 8.5500000000e+001	 3.66170e-004
170	 8.5562500000e+001	 2.90305e-004
171	 8.5625000000e+001	 7.10752e-004
172	 8.5687500000e+001	 4.97555e-004
173	 8.5750000000e+001	 6.04142e-004
174	 8.5812500000e+001	 6.87132e-004
175	 8.5875000000e+001	 2.15865e-004
176	 8.5937500000e+001	 3.90075e-004
177	 8.6000000000e+001	 5.45332e-004
178	 8.6062500000e+001	 5.87741e-004
179	 8.6125000000e+001	 6.50896e-004
180	 8.6187500000e+001	 7.11359e-004
181	 8.6250000000e+001	 1.05256e-003
182	 8.6312500000e+001	 1.17442e-003
183	 8.6375000000e+001	 9.20561e-004
184	 8.6437500000e+001	 5.63717e-004
185	 8.6500000000e+001	 1.12493e-003
186	 8.6562500000e+001	 2.16286e-003
187	 8.6625000000e+001	 1.42936e-003
188	 8.6687500000e+001	 9.49262e-004
189	 8.6750000000e+001	 9.14680e-004
190	 8.6812500000e+001	 9.15946e-004
191	 8.6875000000e+001	 1.36268e-003
192	 8.6937500000e+001	 7.88986e-004
193	 8.7000000000e+001	 7.22595e-004
194	 8.7062500000e+001	 1.12990e-003
195	 8.7125000000e+001	 8.43053e-004
196	 8.7187500000e+001	 2.72343e-003
197	 8.7250000000e+001	 1.91466e-003
198	 8.7312500000e+001	 1.12402e-003
199	 8.7375000000e+001	 1.25032e-003
200	 8.7437500000e+001	 1.26638e-003
201	 8.7500000000e+001	 1.12420e-003
202	 8.7562500000e+001	 1.89639e-003
203	 8.7625000000e+001	 2.81314e-003
204	 8.7687500000e+001	 2.00678e-003
205	 8.7750000000e+001	 1.37040e-003
206	 8.7812500000e+001	 1.09472e-003
207	 8.7875000000e+001	 2.06880e-003
208	 8.7937500000e+001	 2.54005e-003
209	 8.8000000000e+001	 2.04204e-003
210	 8.8062500000e+001	 7.48819e-004
211	 8.8125000000e+001	 1.55257e-003
212	 8.8187500000e+001	 1.57979e-003
213	 8.8250000000e+001	 1.09805e-003
214	 8.8312500000e+001	 2.18716e-003
215	 8.8375000000e+001	 1.51539e-003
216	 8.8437500000e+001	 1.17999e-003
217	 8.8500000000e+001	 9.04038e-004
218	 8.8562500000e+001	 2.24845e-003
219	 8.8625000000e+001	 2.69087e-003
220	 8.8687500000e+001	 1.83714e-003
221	 8.8750000000e+001	 1.22584e-003
222	 8.8812500000e+001	 1.70690e-003
223	 8.8875000000e+001	 3.46090e-003
224	 8.8937500000e+001	 1.73516e-003
225	 8.9000000000e+001	 1.16287e-003
226	 8.9062500000e+001	 1.53064e-003
227	 8.9125000000e+001	 2.75089e-003
228	 8.9187500000e+001	 2.39672e-003
229	 8.9250000000e+001	 1.38616e-003
230	 8.9312500000e+001	 2.40076e-003
231	 8.9375000000e+001	 1.51673e-003
232	 8.9437500000e+001	 1.01730e-003
233	 8.9500000000e+001	 2.35396e-003
234	 8.9562500000e+001	 3.59293e-003
235	 8.9625000000e+001	 1.71502e-003
236	 8.9687500000e+001	 1.22172e-003
237	 8.9750000000e+001	 1.58900e-003
238	 8.9812500000e+001	 1.47329e-003
239	 8.9875000000e+001	 1.82458e-003
240	 8.9937500000e+001	 2.24580e-003
241	 9.0000000000e+001	 1.51995e-003
242	 9.0062500000e+001	 1.37355e-003
243	 9.0125000000e+001	 8.96020e-004
244	 9.0187500000e+001	 7.47532e-004
245	 9.0250000000e+001	 9.94732e-004
246	 9.0312500000e+001	 9.58820e-004
247	 9.0375000000e+001	 9.52425e-004
248	 9.0437500000e+001	 1.68260e-003
249	 9.0500000000e+001	 2.06864e-003
250	 9.0562500000e+001	 2.50123e-003
251	 9.0625000000e+001	 2.85775e-003
252	 9.0687500000e+001	 1.76278e-003
253	 9.0750000000e+001	 1.50758e-003
254	 9.0812500000e+001	 1.23796e-003
255	 9.0875000000e+001	 8.99964e-004
256	 9.0937500000e+001	 2.73867e-003
257	 9.1000000000e+001	 3.32486e-003
258	 9.1062500000e+001	 1.50422e-003
259	 9.1125000000e+001	 7.75976e-004
260	 9.1187500000e+001	 2.51429e-003
261	 9.1250000000e+001	 2.25789e-003
262	 9.1312500000e+001	 9.81252e-004
263	 9.1375000000e+001	 1.08157e-003
264	 9.1437500000e+001	 1.51917e-003
265	 9.1500000000e+001	 1.15978e-003
266	 9.1562500000e+001	 1.08112e-003
267	 9.1625000000e+001	 2.45038e-003
268	 9.1687500000e+001	 2.95231e-003
269	 9.1750000000e+001	 3.74267e-003
270	 9.1812500000e+001	 2.54838e-003
271	 9.1875000000e+001	 1.05183e-003
272	 9.1937500000e+001	 1.36369e-003
273	 9.2000000000e+001	 1.23543e-003
274	 9.2062500000e+001	 5.45641e-004
275	 9.2125000000e+001	 8.54242e-004
276	 9.2187500000e+001	 1.07451e-003
277	 9.2250000000e+001	 1.51871e-003
278	 9.2312500000e+001	 2.03187e-003
279	 9.2375000000e+001	 2.88549e-003
280	 9.2437500000e+001	 1.70932e-003
281	 9.2500000000e+001	 1.20725e-003
282	 9.2562500000e+001	 1.34407e-003
283	 9.2625000000e+001	 1.42407e-003
284	 9.2687500000e+001	 2.26321e-003
285	 9.2750000000e+001	 2.85867e-003
286	 9.2812500000e+001	 3.42895e-003
287	 9.2875000000e+001	 3.75122e-003
288	 9.2937500000e+001	 2.82297e-003
289	 9.3000000000e+001	 1.51564e-003
290	 9.3062500000e+001	 5.94726e-003
291	 9.3125000000e+001	 5.66072e-003
292	 9.3187500000e+001	 3.78094e-003
293	 9.3250000000e+001	 2.29896e-003
294	 9.3312500000e+001	 2.39434e-003
295	 9.3375000000e+001	 3.71774e-003
296	 9.3437500000e+001	 2.67736e-003
297	 9.3500000000e+001	 1.37338e-003
298	 9.3562500000e+001	 1.93125e-003
299	 9.3625000000e+001	 2.75985e-003
300	 9.3687500000e+001	 2.55648e-003
301	 9.3750000000e+001	 3.02052e-003
302	 9.3812500000e+001	 3.31356e-003
303	 9.3875000000e+001	 1.98666e-003
304	 9.3937500000e+001	 2.49489e-003
305	 9.4000000000e+001	 1.40911e-003
306	 9.4062500000e+001	 1.00494e-003
307	 9.4125000000e+001	 1.81903e-003
308	 9.4187500000e+001	 1.02066e-003
309	 9.4250000000e+001	 1.02121e-003
310	 9.4312500000e+001	 2.27415e-003
311	 9.4375000000e+001	 6.57827e-003
312	 9.4437500000e+001	 5.12151e-003
313	 9.4500000000e+001	 1.60088e-003
314	 9.4562500000e+001	 3.34015e-003
315	 9.4625000000e+001	 2.51860e-003
316	 9.4687500000e+001	 9.18853e-004
317	 9.4750000000e+001	 2.41192e-003
318	 9.4812500000e+001	 4.01070e-003
319	 9.4875000000e+001	 2.57719e-003
320	 9.4937500000e+001	 2.12533e-003
321	 9.5000000000e+001	 3.05683e-003
322	 9.5062500000e+001	 4.36669e-003
323	 9.5125000000e+001	 4.05894e-003
324	 9.5187500000e+001	 3.68483e-003
325	 9.5250000000e+001	 5.58296e-003
326	 9.5312500000e+001	 2.48225e-003
327	 9.5375000000e+001	 3.54102e-003
328	 9.5437500000e+001	 4.43688e-003
329	 9.5500000000e+001	 4.69862e-003
330	 9.5562500000e+001	 3.82579e-003
331	 9.5625000000e+001	 1.69437e-003
332	 9.5687500000e+001	 2.82993e-003
333	 9.5750000000e+001	 4.78292e-003
334	 9.5812500000e+001	 2.84675e-003
335	 9.5875000000e+001	 3.65205e-003
336	 9.5937500000e+001	 5.15272e-003
337	 9.6000000000e+001	 3.74998e-003
338	 9.6062500000e+001	 2.76681e-003
339	 9.6125000000e+001	 3.48130e-003
340	 9.6187500000e+001	 6.18898e-003
341	 9.6250000000e+001	 5.04637e-003
342	 9.6312500000e+001	 2.75531e-003
343	 9.6375000000e+001	 3.50838e-003
344	 9.6437500000e+001	 2.15262e-003
345	 9.6500000000e+001	 2.69942e-003
346	 9.6562500000e+001	 3.39884e-003
347	 9.6625000000e+001	 5.49838e-003
348	 9.6687500000e+001	 3.32160e-003
349	 9.6750000000e+001	 4.58899e-003
350	 9.6812500000e+001	 8.88501e-003
351	 9.6875000000e+001	 7.96464e-003
352	 9.6937500000e+001	 5.82819e-003
353	 9.7000000000e+001	 3.47552e-003
354	 9.7062500000e+001	 5.10375e-003
355	 9.7125000000e+001	 6.73639e-003
356	 9.7187500000e+001	 7.32355e-003
357	 9.7250000000e+001	 6.32607e-003
358	 9.7312500000e+001	 4.24632e-003
359	 9.7375000000e+001	 4.87505e-003
360	 9.7437500000e+001	 2.90357e-003
361	 9.7500000000e+001	 7.64947e-003
362	 9.7562500000e+001	 9.41134e-003
363	 9.7625000000e+001	 4.21881e-003
364	 9.7687500000e+001	 4.27554e-003
365	 9.7750000000e+001	 7.06210e-003
366	 9.7812500000e+001	 7.04327e-003
367	 9.7875000000e+001	 7.51756e-003
368	 9.7937500000e+001	 5.56848e-003
369	 9.8000000000e+001	 8.55468e-003
370	 9.8062500000e+001	 4.38775e-003
371	 9.8125000000e+001	 2.58523e-003
372	 9.8187500000e+001	 4.89219e-003
373	 9.8250000000e+001	 1.59915e-003
374	 9.8312500000e+001	 2.61728e-003
375	 9.8375000000e+001	 6.08953e-003
376	 9.8437500000e+001	 3.09393e-003
377	 9.8500000000e+001	 4.57905e-003
378	 9.8562500000e+001	 8.35550e-003
379	 9.8625000000e+001	 5.57916e-003
380	 9.8687500000e+001	 5.80013e-003
381	 9.8750000000e+001	 3.48979e-003
382	 9.8812500000e+001	 3.66146e-003
383	 9.8875000000e+001	 9.69260e-003
384	 9.8937500000e+001	 1.04963e-002
385	 9.9000000000e+001	 7.46848e-003
386	 9.9062500000e+001	 5.99476e-003
387	 9.9125000000e+001	 8.61029e-003
388	 9.9187500000e+001	 4.71498e-003
389	 9.9250000000e+001	 1.29927e-002
390	 9.9312500000e+001	 9.71088e-003
391	 9.9375000000e+001	 2.37518e-003
392	 9.9437500000e+001	 3.56036e-003
393	 9.9500000000e+001	 5.97286e-003
394	 9.9562500000e+001	 3.61001e-003
395	 9.9625000000e+001	 3.33564e-003
396	 9.9687500000e+001	 6.99494e-003
397	 9.9750000000e+001	 9.37234e-003
398	 9.9812500000e+001	 3.43566e-003
399	 9.9875000000e+001	 5.32444e-003
400	 9.9937500000e+001	 4.89557e-003
401	 1.0000000000e+002	 6.11252e-003
402	 1.0006250000e+002	 4.67352e-003
403	 1.0012500000e+002	 6.35902e-003
404	 1.0018750000e+002	 5.92837e-003
405	 1.0025000000e+002	 8.00917e-003
406	 1.0031250000e+002	 5.14641e-003
407	 1.0037500000e+002	 8.01959e-003
408	 1.0043750000e+002	 1.27800e-002
409	 1.0050000000e+002	 8.98054e-003
410	 1.0056250000e+002	 3.45821e-003
411	 1.0062500000e+002	 4.07483e-003
412	 1.0068750000e+002	 6.29276e-003
413	 1.0075000000e+002	 1.35436e-002
414	 1.0081250000e+002	 1.37842e-002
415	 1.0087500000e+002	 8.13687e-003
416	 1.0093750000e+002	 9.64873e-003
417	 1.0100000000e+002	 8.70698e-003
418	 1.0106250000e+002	 8.94007e-003
419	 1.0112500000e+002	 6.28221e-003
420	 1.0118750000e+002	 7.39663e-003
421	 1.0125000000e+002	 1.14340e-002
422	 1.0131250000e+002	 9.51089e-003
423	 1.0137500000e+002	 3.39008e-003
424	 1.0143750000e+002	 4.86575e-003
425	 1.0150000000e+002	 4.38239e-003
426	 1.0156250000e+002	 3.84698e-003
427	 1.0162500000e+002	 1.28550e-002
428	 1.0168750000e+002	 1.04717e-002
429	 1.0175000000e+002	 5.37756e-003
430	 1.0181250000e+002	 1.00358e-002
431	 1.0187500000e+002	 1.26037e-002
432	 1.0193750000e+002	 1.12975e-002
433	 1.0200000000e+002	 1.76378e-002
434	 1.0206250000e+002	 1.47676e-002
435	 1.0212500000e+002	 5.51727e-003
436	 1.0218750000e+002	 6.18222e-003
437	 1.0225000000e+002	 4.96664e-003
438	 1.0231250000e+002	 1.00166e-002
439	 1.0237500000e+002	 1.39661e-002
440	 1.0243750000e+002	 1.17742e-002
441	 1.0250000000e+002	 2.04368e-002
442	 1.0256250000e+002	 2.54122e-002
443	 1.0262500000e+002	 1.63867e-002
444	 1.0268750000e+002	 1.13399e-002
445	 1.0275000000e+002	 2.17553e-002
446	 1.0281250000e+002	 2.43223e-002
447	 1.0287500000e+002	 1.79795e-002
448	 1.0293750000e+002	 1.66783e-002
449	 1.0300000000e+002	 1.37205e-002
450	 1.0306250000e+002	 8.47631e-003
451	 1.0312500000e+002	 2.45058e-002
452	 1.0318750000e+002	 4.43610e-002
453	 1.0325000000e+002	 1.64541e-002
454	 1.0331250000e+002	 1.01096e-002
455	 1.0337500000e+002	 1.42995e-002
456	 1.0343750000e+002	 2.65476e-002
457	 1.0350000000e+002	 2.66283e-002
458	 1.0356250000e+002	 3.07367e-002
459	 1.0362500000e+002	 2.44902e-002
460	 1.0368750000e+002	 2.37272e-002
461	 1.0375000000e+002	 2.02225e-002
462	 1.0381250000e+002	 1.88480e-002
463	 1.0387500000e+002	 2.12806e-002
464	 1.0393750000e+002	 1.81173e-002
465	 1.0400000000e+002	 2.18482e-002
466	 1.0406250000e+002	 1.78288e-002
467	 1.0412500000e+002	 1.15564e-002
468	 1.0418750000e+002	 4.27466e-002
469	 1.0425000000e+002	 6.46901e-002
470	 1.0431250000e+002	 5.50021e-002
471	 1.0437500000e+002	 3.88662e-002
472	 1.0443750000e+002	 1.80366e-002
473	 1.0450000000e+002	 1.17069e-002
474	 1.0456250000e+002	 1.50598e-002
475	 1.0462500000e+002	 1.40081e-002
476	 1.0468750000e+002	 2.61902e-002
477	 1.0475000000e+002	 4.34621e-002
478	 1.0481250000e+002	 2.65617e-002
479	 1.0487500000e+002	 4.82964e-002
480	 1.0493750000e+002	 6.16328e-002
481	 1.0500000000e+002	 4.23807e-002
482	 1.0506250000e+002	 2.95749e-002
483	 1.0512500000e+002	 4.02075e-002
484	 1.0518750000e+002	 3.32394e-002
485	 1.0525000000e+002	 4.10105e-002
486	 1.0531250000e+002	 3.45840e-002
487	 1.0537500000e+002	 3.67376e-002
488	 1.0543750000e+002	 5.69576e-002
489	 1.0550000000e+002	 7.89100e-002
490	 1.0556250000e+002	 4.40896e-002
491	 1.0562500000e+002	 2.96836e-002
492	 1.0568750000e+002	 3.01502e-002
493	 1.0575000000e+002	 2.78844e-002
494	 1.0581250000e+002	 1.59233e-002
495	 1.0587500000e+002	 1.46532e-002
496	 1.0593750000e+002	 1.24322e-002
497	 1.0600000000e+002	 5.20114e-002
498	 1.0606250000e+002	 8.99207e-002
499	 1.0612500000e+002	 6.79496e-002
500	 1.0618750000e+002	 4.18214e-002
501	 1.0625000000e+002	 3.26821e-002
502	 1.0631250000e+002	 4.24717e-002
503	 1.0637500000e+002	 7.05384e-002
504	 1.0643750000e+002	 5.98511e-002
505	 1.0650000000e+002	 5.75150e-002
506	 1.0656250000e+002	 1.01890e-001
507	 1.0662500000e+002	 8.43532e-002
508	 1.0668750000e+002	 8.00132e-002
509	 1.0675000000e+002	 4.43754e-002
510	 1.0681250000e+002	 6.49195e-002
511	 1.0687500000e+002	 8.63708e-002
512	 1.0693750000e+002	 2.30192e-001
513	 1.0700000000e+002	 2.57801e-001
514	 1.0706250000e+002	 1.52385e-001
515	 1.0712500000e+002	 1.86586e-001
516	 1.0718750000e+002	 1.73467e-001
517	 1.0725000000e+002	 1.51978e-001
518	 1.0731250000e+002	 1.74465e-001
519	 1.0737500000e+002	 1.49756e-001
520	 1.0743750000e+002	 6.50026e-002
521	 1.0750000000e+002	 1.30372e-001
522	 1.0756250000e+002	 2.27246e-001
523	 1.0762500000e+002	 1.39847e-001
524	 1.0768750000e+002	 2.51242e-001
525	 1.0775000000e+002	 2.16601e-001
526	 1.0781250000e+002	 1.23671e-001
527	 1.0787500000e+002	 2.39177e-001
528	 1.0793750000e+002	 2.30101e-001
529	 1.0800000000e+002	 1.56575e-001
530	 1.0806250000e+002	 8.37991e-002
531	 1.0812500000e+002	 9.80855e-002
532	 1.0818750000e+002	 1.24311e-001
533	 1.0825000000e+002	 1.28203e-001
534	 1.0831250000e+002	 1.00960e-001
535	 1.0837500000e+002	 1.07182e-001
536	 1.0843750000e+002	 7.02631e-002
537	 1.0850000000e+002	 4.21116e-002
538	 1.0856250000e+002	 6.58184e-002
539	 1.0862500000e+002	 9.05336e-002
540	 1.0868750000e+002	 6.06020e-002
541	 1.0875000000e+002	 5.89471e-002
542	 1.0881250000e+002	 8.79553e-002
543	 1.0887500000e+002	 8.50568e-002
544	 1.0893750000e+002	 5.30141e-002
545	 1.0900000000e+002	 9.44093e-002
546	 1.0906250000e+002	 7.36098e-002
547	 1.0912500000e+002	 7.44604e-002
548	 1.0918750000e+002	 1.37394e-001
549	 1.0925000000e+002	 1.27153e-001
550	 1.0931250000e+002	 7.67310e-002
551	 1.0937500000e+002	 1.26468e-001
552	 1.0943750000e+002	 7.24630e-002
553	 1.0950000000e+002	 7.65413e-002
554	 1.0956250000e+002	 1.16450e-001
555	 1.0962500000e+002	 1.59192e-001
556	 1.0968750000e+002	 1.01213e-001
557	 1.0975000000e+002	 6.14322e-002
558	 1.0981250000e+002	 7.36800e-002
559	 1.0987500000e+002	 7.69720e-002
560	 1.0993750000e+002	 1.56190e-001
561	 1.1000000000e+002	 1.17423e-001
562	 1.1006250000e+002	 8.19439e-002
563	 1.1012500000e+002	 1.24096e-001
564	 1.1018750000e+002	 1.77599e-001
565	 1.1025000000e+002	 6.57070e-002
566	 1.1031250000e+002	 1.27808e-001
567	 1.1037500000e+002	 1.05362e-001
568	 1.1043750000e+002	 7.59296e-002
569	 1.1050000000e+002	 8.08358e-002
570	 1.1056250000e+002	 6.05617e-002
571	 1.1062500000e+002	 8.65275e-002
572	 1.1068750000e+002	 2.92072e-002
573	 1.1075000000e+002	 4.63785e-002
574	 1.1081250000e+002	 8.06283e-002
575	 1.1087500000e+002	 6.37080e-002
576	 1.1093750000e+002	 3.40484e-002
577	 1.1100000000e+002	 2.80993e-002
578	 1.1106250000e+002	 6.27518e-002
579	 1.1112500000e+002	 8.67236e-002
580	 1.1118750000e+002	 4.30326e-002
581	 1.1125000000e+002	 2.81078e-002
582	 1.1131250000e+002	 4.70005e-002
583	 1.1137500000e+002	 3.99214e-002
584	 1.1143750000e+002	 3.38384e-002
585	 1.1150000000e+002	 2.10254e-002
586	 1.1156250000e+002	 4.10898e-002
587	 1.1162500000e+002	 3.58854e-002
588	 1.1168750000e+002	 3.37936e-002
589	 1.1175000000e+002	 3.72345e-002
590	 1.1181250000e+002	 4.33863e-002
591	 1.1187500000e+002	 6.73757e-002
592	 1.1193750000e+002	 5.96102e-002
593	 1.1200000000e+002	 6.78385e-002
594	 1.1206250000e+002	 7.84584e-002
595	 1.1212500000e+002	 2.37981e-002
596	 1.1218750000e+002	 2.50201e-002
597	 1.1225000000e+002	 2.61533e-002
598	 1.1231250000e+002	 1.37135e-002
599	 1.1237500000e+002	 2.97578e-002
600	 1.1243750000e+002	 9.06171e-002
601	 1.1250000000e+002	 5.22872e-002
602	 1.1256250000e+002	 4.46293e-002
603	 1.1262500000e+002	 9.00918e-002
604	 1.1268750000e+002	 5.51240e-002
605	 1.1275000000e+002	 4.31614e-002
606	 1.1281250000e+002	 4.64161e-002
607	 1.1287500000e+002	 4.20772e-002
608	 1.1293750000e+002	 1.82867e-002
609	 1.1300000000e+002	 1.06533e-002
610	 1.1306250000e+002	 2.73813e-002
611	 1.1312500000e+002	 2.82675e-002
612	 1.1318750000e+002	 3.65012e-002
613	 1.1325000000e+002	 7.89093e-002
614	 1.1331250000e+002	 9.09758e-002
615	 1.1337500000e+002	 4.84958e-002
616	 1.1343750000e+002	 3.34757e-002
617	 1.1350000000e+002	 4.95056e-002
618	 1.1356250000e+002	 3.56007e-002
619	 1.1362500000e+002	 2.30898e-002
620	 1.1368750000e+002	 3.61771e-002
621	 1.1375000000e+002	 4.88970e-002
622	 1.1381250000e+002	 2.10598e-002
623	 1.1387500000e+002	 1.10958e-002
624	 1.1393750000e+002	 1.89335e-002
625	 1.1400000000e+002	 4.01464e-002
626	 1.1406250000e+002	 3.66162e-002
627	 1.1412500000e+002	 3.15144e-002
628	 1.1418750000e+002	 3.54291e-002
629	 1.1425000000e+002	 5.27272e-002
630	 1.1431250000e+002	 4.39831e-002
631	 1.1437500000e+002	 4.77971e-002
632	 1.1443750000e+002	 4.70344e-002
633	 1.1450000000e+002	 2.48849e-002
634	 1.1456250000e+002	 2.45579e-002
635	 1.1462500000e+002	 1.35791e-002
636	 1.1468750000e+002	 2.24753e-002
637	 1.1475000000e+002	 2.41787e-002
638	 1.1481250000e+002	 9.66966e-003
639	 1.1487500000e+002	 1.25369e-002
640	 1.1493750000e+002	 1.76835e-002
641	 1.1500000000e+002	 1.44572e-002
642	 1.1506250000e+002	 1.64418e-002
643	 1.1512500000e+002	 1.58157e-002
644	 1.1518750000e+002	 1.33890e-002
645	 1.1525000000e+002	 1.19694e-002
646	 1.1531250000e+002	 9.18379e-003
647	 1.1537500000e+002	 2.38958e-002
648	 1.1543750000e+002	 1.70159e-002
649	 1.1550000000e+002	 1.07864e-002
650	 1.1556250000e+002	 2.68508e-002
651	 1.1562500000e+002	 3.12959e-002
652	 1.1568750000e+002	 2.49553e-002
653	 1.1575000000e+002	 1.55773e-002
654	 1.1581250000e+002	 9.41468e-003
655	 1.1587500000e+002	 1.17641e-002
656	 1.1593750000e+002	 9.20640e-003
657	 1.1600000000e+002	 1.46010e-002
658	 1.1606250000e+002	 1.70759e-002
659	 1.1612500000e+002	 8.50119e-003
660	 1.1618750000e+002	 1.25713e-002
661	 1.1625000000e+002	 1.94841e-002
662	 1.1631250000e+002	 1.83550e-002
663	 1.1637500000e+002	 1.34886e-002
664	 1.1643750000e+002	 1.54279e-002
665	 1.1650000000e+002	 1.25940e-002
666	 1.1656250000e+002	 1.33224e-002
667	 1.1662500000e+002	 1.53567e-002
668	 1.1668750000e+002	 1.39422e-002
669	 1.1675000000e+002	 8.74575e-003
670	 1.1681250000e+002	 9.70758e-003
671	 1.1687500000e+002	 1.06384e-002
672	 1.1693750000e+002	 7.72262e-003
673	 1.1700000000e+002	 8.86966e-003
674	 1.1706250000e+002	 1.85532e-002
675	 1.1712500000e+002	 1.59196e-002
676	 1.1718750000e+002	 5.06953e-003
677	 1.1725000000e+002	 5.40288e-003
678	 1.1731250000e+002	 1.14669e-002
679	 1.1737500000e+002	 1.30932e-002
680	 1.1743750000e+002	 8.63628e-003
681	 1.1750000000e+002	 1.29297e-002
682	 1.1756250000e+002	 1.37579e-002
683	 1.1762500000e+002	 8.96661e-003
684	 1.1768750000e+002	 1.29281e-002
685	 1.1775000000e+002	 8.41706e-003
686	 1.1781250000e+002	 4.87582e-003
687	 1.1787500000e+002	 1.22697e-002
688	 1.1793750000e+002	 1.16244e-002
689	 1.1800000000e+002	 5.43924e-003
690	 1.1806250000e+002	 2.91193e-003
691	 1.1812500000e+002	 6.51412e-003
692	 1.1818750000e+002	 1.79570e-002
693	 1.1825000000e+002	 1.27494e-002
694	 1.1831250000e+002	 1.18113e-002
695	 1.1837500000e+002	 8.80839e-003
696	 1.1843750000e+002	 6.29721e-003
697	 1.1850000000e+002	 1.07425e-002
698	 1.1856250000e+002	 9.61060e-003
699	 1.1862500000e+002	 1.15675e-002
700	 1.1868750000e+002	 1.94426e-002
701	 1.1875000000e+002	 2.49118e-002
702	 1.1881250000e+002	 1.57638e-002
703	 1.1887500000e+002	 8.75737e-003
704	 1.1893750000e+002	 8.97567e-003
705	 1.1900000000e+002	 6.69901e-003
706	 1.1906250000e+002	 6.07646e-003
707	 1.1912500000e+002	 4.29593e-003
708	 1.1918750000e+002	 1.01037e-002
709	 1.1925000000e+002	 1.14364e-002
710	 1.1931250000e+002	 1.32601e-002
711	 1.1937500000e+002	 1.90046e-002
712	 1.1943750000e+002	 1.19728e-002
713	 1.1950000000e+002	 7.49916e-003
714	 1.1956250000e+002	 7.17406e-003
715	 1.1962500000e+002	 5.55340e-003
716	 1.1968750000e+002	 8.15600e-003
717	 1.1975000000e+002	 9.62318e-003
718	 1.1981250000e+002	 7.72204e-003
719	 1.1987500000e+002	 2.09223e-002
720	 1.1993750000e+002	 1.54965e-002
721	 1.2000000000e+002	 7.88707e-003
722	 1.2006250000e+002	 9.49529e-003
723	 1.2012500000e+002	 1.04031e-002
724	 1.2018750000e+002	 3.03706e-003
725	 1.2025000000e+002	 7.10312e-003
726	 1.2031250000e+002	 1.12221e-002
727	 1.2037500000e+002	 5.87426e-003
728	 1.2043750000e+002	 5.84095e-003
729	 1.2050000000e+002	 6.40544e-003
730	 1.2056250000e+002	 9.52367e-003
731	 1.2062500000e+002	 1.00635e-002
732	 1.2068750000e+002	 4.45280e-003
733	 1.2075000000e+002	 7.21603e-003
734	 1.2081250000e+002	 1.51354e-002
735	 1.2087500000e+002	 7.78871e-003
736	 1.2093750000e+002	 1.14537e-002
737	 1.2100000000e+002	 1.36150e-002
738	 1.2106250000e+002	 6.93049e-003
739	 1.2112500000e+002	 4.97976e-003
740	 1.2118750000e+002	 6.52472e-003
741	 1.2125000000e+002	 9.95863e-003
742	 1.2131250000e+002	 1.07513e-002
743	 1.2137500000e+002	 4.68879e-003
744	 1.2143750000e+002	 1.12875e-003
745	 1.2150000000e+002	 1.21258e-003
746	 1.2156250000e+002	 1.31210e-003
747	 1.2162500000e+002	 1.79157e-003
748	 1.2168750000e+002	 3.71271e-003
749	 1.2175000000e+002	 5.39900e-003
750	 1.2181250000e+002	 9.08251e-003
751	 1.2187500000e+002	 8.79397e-003
752	 1.2193750000e+002	 5.93327e-003
753	 1.2200000000e+002	 8.99683e-003
754	 1.2206250000e+002	 7.49380e-003
755	 1.2212500000e+002	 6.17629e-003
756	 1.2218750000e+002	 4.87324e-003
757	 1.2225000000e+002	 7.83193e-003
758	 1.2231250000e+002	 5.77435e-003
759	 1.2237500000e+002	 2.53662e-003
760	 1.2243750000e+002	 3.91606e-003
761	 1.2250000000e+002	 6.41232e-003
762	 1.2256250000e+002	 6.05114e-003
763	 1.2262500000e+002	 6.57675e-003
764	 1.2268750000e+002	 7.53742e-003
765	 1.2275000000e+002	 5.70562e-003
766	 1.2281250000e+002	 3.76331e-003
767	 1.2287500000e+002	 3.40911e-003
768	 1.2293750000e+002	 5.35916e-003
769	 1.2300000000e+002	 4.78212e-003
770	 1.2306250000e+002	 5.87734e-003
771	 1.2312500000e+002	 1.09620e-002
772	 1.2318750000e+002	 8.84477e-003
773	 1.2325000000e+002	 5.85200e-003
774	 1.2331250000e+002	 3.88135e-003
775	 1.2337500000e+002	 6.01800e-003
776	 1.2343750000e+002	 2.38210e-003
777	 1.2350000000e+002	 1.88648e-003
778	 1.2356250000e+002	 5.11302e-003
779	 1.2362500000e+002	 5.68046e-003
780	 1.2368750000e+002	 9.71896e-003
781	 1.2375000000e+002	 5.12082e-003
782	 1.2381250000e+002	 6.96601e-003
783	 1.2387500000e+002	 8.59443e-003
784	 1.2393750000e+002	 6.01719e-003
785	 1.2400000000e+002	 1.48820e-003
786	 1.2406250000e+002	 1.52434e-003
787	 1.2412500000e+002	 2.18686e-003
788	 1.2418750000e+002	 4.66516e-003
789	 1.2425000000e+002	 3.99793e-003
790	 1.2431250000e+002	 7.04675e-003
791	 1.2437500000e+002	 6.96538e-003
792	 1.2443750000e+002	 3.28766e-003
793	 1.2450000000e+002	 5.65650e-003
794	 1.2456250000e+002	 1.11042e-002
795	 1.2462500000e+002	 1.23265e-002
796	 1.2468750000e+002	 6.69390e-003
797	 1.2475000000e+002	 6.31154e-003
798	 1.2481250000e+002	 5.03106e-003
799	 1.2487500000e+002	 2.99607e-003
800	 1.2493750000e+002	 3.91085e-003
801	 1.2500000000e+002	 2.92786e-003
802	 1.2506250000e+002	 2.40774e-003
803	 1.2512500000e+002	 3.76086e-003
804	 1.2518750000e+002	 8.25960e-003
805	 1.2525000000e+002	 8.60171e-003
806	 1.2531250000e+002	 8.82749e-003
807	 1.2537500000e+002	 7.47501e-003
808	 1.2543750000e+002	 4.55909e-003
809	 1.2550000000e+002	 7.09469e-003
810	 1.2556250000e+002	 1.39094e-002
811	 1.2562500000e+002	 1.27602e-002
812	 1.2568750000e+002	 5.30422e-003
813	 1.2575000000e+002	 3.81640e-003
814	 1.2581250000e+002	 3.10955e-003
815	 1.2587500000e+002	 3.06111e-003
816	 1.2593750000e+002	 5.85367e-003
817	 1.2600000000e+002	 8.60655e-003
818	 1.2606250000e+002	 5.97637e-003
819	 1.2612500000e+002	 4.03641e-003
820	 1.2618750000e+002	 4.08696e-003
821	 1.2625000000e+002	 7.89338e-003
822	 1.2631250000e+002	 4.83266e-003
823	 1.2637500000e+002	 1.34406e-003
824	 1.2643750000e+002	 2.55244e-003
825	 1.2650000000e+002	 4.66760e-003
826	 1.2656250000e+002	 6.95190e-003
827	 1.2662500000e+002	 2.97233e-003
828	 1.2668750000e+002	 1.88934e-003
829	 1.2675000000e+002	 2.06787e-003
830	 1.2681250000e+002	 4.27707e-003
831	 1.2687500000e+002	 3.56814e-003
832	 1.2693750000e+002	 5.22549e-003
833	 1.2700000000e+002	 5.47446e-003
834	 1.2706250000e+002	 4.43409e-003
835	 1.2712500000e+002	 4.59823e-003
836	 1.2718750000e+002	 6.21826e-003
837	 1.2725000000e+002	 1.24562e-002
838	 1.2731250000e+002	 6.17128e-003
839	 1.2737500000e+002	 3.91533e-003
840	 1.2743750000e+002	 5.20284e-003
841	 1.2750000000e+002	 5.22857e-003
842	 1.2756250000e+002	 3.24569e-003
843	 1.2762500000e+002	 3.19119e-003
844	 1.2768750000e+002	 4.40704e-003
845	 1.2775000000e+002	 5.02657e-003
846	 1.2781250000e+002	 3.84614e-003
847	 1.2787500000e+002	 2.25842e-003
848	 1.2793750000e+002	 3.01814e-003
849	 1.2800000000e+002	 5.06802e-003
850	 1.2806250000e+002	 3.76399e-003
851	 1.2812500000e+002	 6.07063e-003
852	 1.2818750000e+002	 6.35587e-003
853	 1.2825000000e+002	 9.68714e-003
854	 1.2831250000e+002	 8.37924e-003
855	 1.2837500000e+002	 4.29112e-003
856	 1.2843750000e+002	 5.09489e-003
857	 1.2850000000e+002	 6.36657e-003
858	 1.2856250000e+002	 7.34513e-003
859	 1.2862500000e+002	 4.01259e-003
860	 1.2868750000e+002	 1.67143e-003
861	 1.2875000000e+002	 2.29519e-003
862	 1.2881250000e+002	 5.94715e-003
863	 1.2887500000e+002	 1.21359e-002
864	 1.2893750000e+002	 9.72625e-003
865	 1.2900000000e+002	 3.89320e-003
866	 1.2906250000e+002	 1.67718e-003
867	 1.2912500000e+002	 3.46515e-003
868	 1.2918750000e+002	 1.11907e-002
869	 1.2925000000e+002	 1.20943e-002
870	 1.2931250000e+002	 5.93079e-003
871	 1.2937500000e+002	 3.14573e-003
872	 1.2943750000e+002	 3.46311e-003
873	 1.2950000000e+002	 4.82764e-003
874	 1.2956250000e+002	 7.60664e-003
875	 1.2962500000e+002	 7.79604e-003
876	 1.2968750000e+002	 3.24957e-003
877	 1.2975000000e+002	 3.78599e-003
878	 1.2981250000e+002	 4.95325e-003
879	 1.2987500000e+002	 2.37089e-003
880	 1.2993750000e+002	 2.82971e-003
881	 1.3000000000e+002	 3.47324e-003
882	 1.3006250000e+002	 2.54232e-003
883	 1.3012500000e+002	 3.07109e-003
884	 1.3018750000e+002	 5.32358e-003
885	 1.3025000000e+002	 2.90392e-003
886	 1.3031250000e+002	 2.13345e-003
887	 1.3037500000e+002	 6.10043e-003
888	 1.3043750000e+002	 5.63819e-003
889	 1.3050000000e+002	 3.48983e-003
890	 1.3056250000e+002	 2.06752e-003
891	 1.3062500000e+002	 1.72264e-003
892	 1.3068750000e+002	 1.11245e-003
893	 1.3075000000e+002	 6.09422e-004
894	 1.3081250000e+002	 1.82146e-003
895	 1.3087500000e+002	 4.27794e-003
896	 1.3093750000e+002	 3.94183e-003
897	 1.3100000000e+002	 4.83074e-003
898	 1.3106250000e+002	 3.12795e-003
899	 1.3112500000e+002	 3.71487e-003
900	 1.3118750000e+002	 2.65516e-003
901	 1.3125000000e+002	 3.08140e-003
902	 1.3131250000e+002	 4.11265e-003
903	 1.3137500000e+002	 3.88249e-003
904	 1.3143750000e+002	 2.61005e-003
905	 1.3150000000e+002	 5.52535e-003
906	 1.3156250000e+002	 5.64418e-003
907	 1.3162500000e+002	 4.51658e-003
908	 1.3168750000e+002	 5.88116e-003
909	 1.3175000000e+002	 3.16494e-003
910	 1.3181250000e+002	 4.01436e-003
911	 1.3187500000e+002	 2.95034e-003
912	 1.3193750000e+002	 3.05895e-003
913	 1.3200000000e+002	 3.78259e-003
914	 1.3206250000e+002	 2.59439e-003
915	 1.3212500000e+002	 5.86578e-003
916	 1.3218750000e+002	 8.37156e-003
917	 1.3225000000e+002	 6.53751e-003
918	 1.3231250000e+002	 4.46221e-003
919	 1.3237500000e+002	 3.86374e-003
920	 1.3243750000e+002	 6.61945e-003
921	 1.3250000000e+002	 5.18723e-003
922	 1.3256250000e+002	 2.37764e-003
923	 1.3262500000e+002	 7.10422e-004
924	 1.3268750000e+002	 7.10740e-004
925	 1.3275000000e+002	 3.46496e-003
926	 1.3281250000e+002	 3.12851e-003
927	 1.3287500000e+002	 3.92474e-003
928	 1.3293750000e+002	 5.52674e-003
929	 1.3300000000e+002	 3.36746e-003
930	 1.3306250000e+002	 3.02935e-003
931	 1.3312500000e+002	 5.77805e-003
932	 1.3318750000e+002	 6.91130e-003
933	 1.3325000000e+002	 6.52858e-003
934	 1.3331250000e+002	 3.89930e-003
935	 1.3337500000e+002	 3.96204e-003
936	 1.3343750000e+002	 2.79926e-003
937	 1.3350000000e+002	 2.85648e-003
938	 1.3356250000e+002	 5.66962e-003
939	 1.3362500000e+002	 5.18372e-003
940	 1.3368750000e+002	 4.64262e-003
941	 1.3375000000e+002	 8.06069e-003
942	 1.3381250000e+002	 8.03001e-003
943	 1.3387500000e+002	 4.54997e-003
944	 1.3393750000e+002	 3.52503e-003
945	 1.3400000000e+002	 3.22716e-003
946	 1.3406250000e+002	 8.79748e-004
947	 1.3412500000e+002	 1.46560e-003
948	 1.3418750000e+002	 3.01355e-003
949	 1.3425000000e+002	 8.96004e-003
950	 1.3431250000e+002	 7.03226e-003
951	 1.3437500000e+002	 1.04337e-002
952	 1.3443750000e+002	 1.37216e-002
953	 1.3450000000e+002	 4.59012e-003
954	 1.3456250000e+002	 1.84186e-003
955	 1.3462500000e+002	 4.83118e-003
956	 1.3468750000e+002	 1.17192e-002
957	 1.3475000000e+002	 8.91803e-003
958	 1.3481250000e+002	 3.46553e-003
959	 1.3487500000e+002	 5.20574e-003
960	 1.3493750000e+002	 6.28876e-003
961	 1.3500000000e+002	 6.04591e-003
962	 1.3506250000e+002	 3.88572e-003
963	 1.3512500000e+002	 6.62427e-003
964	 1.3518750000e+002	 4.25718e-003
965	 1.3525000000e+002	 3.44768e-003
966	 1.3531250000e+002	 4.44233e-003
967	 1.3537500000e+002	 8.93085e-003
968	 1.3543750000e+002	 1.88201e-002
969	 1.3550000000e+002	 8.78195e-003
970	 1.3556250000e+002	 2.90561e-003
971	 1.3562500000e+002	 3.19456e-003
972	 1.3568750000e+002	 6.95313e-003
973	 1.3575000000e+002	 5.53857e-003
974	 1.3581250000e+002	 6.08545e-003
975	 1.3587500000e+002	 3.73219e-003
976	 1.3593750000e+002	 2.57009e-003
977	 1.3600000000e+002	 1.12763e-003
978	 1.3606250000e+002	 2.88026e-003
979	 1.3612500000e+002	 4.95211e-003
980	 1.3618750000e+002	 6.46602e-003
981	 1.3625000000e+002	 6.51242e-003
982	 1.3631250000e+002	 3.14282e-003
983	 1.3637500000e+002	 2.39472e-003
984	 1.3643750000e+002	 5.81537e-003
985	 1.3650000000e+002	 4.94304e-003
986	 1.3656250000e+002	 3.01991e-003
987	 1.3662500000e+002	 2.49397e-003
988	 1.3668750000e+002	 4.60636e-003
989	 1.3675000000e+002	 4.38267e-003
990	 1.3681250000e+002	 3.65017e-003
991	 1.3687500000e+002	 7.51191e-003
992	 1.3693750000e+002	 5.59980e-003
993	 1.3700000000e+002	 7.08505e-003
994	 1.3706250000e+002	 6.46185e-003
995	 1.3712500000e+002	 1.12806e-002
996	 1.3718750000e+002	 7.61793e-003
997	 1.3725000000e+002	 5.43643e-003
998	 1.3731250000e+002	 8.78300e-003
999	 1.3737500000e+002	 1.20152e-002
1000	 1.3743750000e+002	 4.75226e-003
1001	 1.3750000000e+002	 4.50592e-003
1002	 1.3756250000e+002	 4.82637e-003
1003	 1.3762500000e+002	 8.32262e-003
1004	 1.3768750000e+002	 1.24629e-002
1005	 1.3775000000e+002	 8.26987e-003
1006	 1.3781250000e+002	 4.49154e-003
1007	 1.3787500000e+002	 5.50939e-003
1008	 1.3793750000e+002	 4.01033e-003
1009	 1.3800000000e+002	 6.06569e-003
1010	 1.3806250000e+002	 5.24854e-003
1011	 1.3812500000e+002	 9.57253e-003
1012	 1.3818750000e+002	 1.41302e-002
1013	 1.3825000000e+002	 4.92522e-003
1014	 1.3831250000e+002	 2.81370e-003
1015	 1.3837500000e+002	 2.95277e-003
1016	 1.3843750000e+002	 4.34456e-003
1017	 1.3850000000e+002	 9.42012e-003
1018	 1.3856250000e+002	 7.78816e-003
1019	 1.3862500000e+002	 7.73064e-003
1020	 1.3868750000e+002	 7.83086e-003
1021	 1.3875000000e+002	 1.02632e-002
1022	 1.3881250000e+002	 9.69943e-003
1023	 1.3887500000e+002	 7.58345e-003
1024	 1.3893750000e+002	 5.73208e-003
1025	 1.3900000000e+002	 9.87857e-003
1026	 1.3906250000e+002	 1.46896e-002
1027	 1.3912500000e+002	 4.11026e-003
1028	 1.3918750000e+002	 4.13749e-003
1029	 1.3925000000e+002	 8.51385e-003
1030	 1.3931250000e+002	 1.35882e-002
1031	 1.3937500000e+002	 5.88320e-003
1032	 1.3943750000e+002	 4.34876e-003
1033	 1.3950000000e+002	 7.25966e-003
1034	 1.3956250000e+002	 4.91616e-003
1035	 1.3962500000e+002	 2.88287e-003
1036	 1.3968750000e+002	 4.60440e-003
1037	 1.3975000000e+002	 7.72804e-003
1038	 1.3981250000e+002	 4.64970e-003
1039	 1.3987500000e+002	 4.53176e-003
1040	 1.3993750000e+002	 5.06323e-003
1041	 1.4000000000e+002	 1.06508e-002
1042	 1.4006250000e+002	 1.21398e-002
1043	 1.4012500000e+002	 1.02618e-002
1044	 1.4018750000e+002	 7.20644e-003
1045	 1.4025000000e+002	 7.65624e-003
1046	 1.4031250000e+002	 1.10035e-002
1047	 1.4037500000e+002	 9.89874e-003
1048	 1.4043750000e+002	 4.97622e-003
1049	 1.4050000000e+002	 5.57844e-003
1050	 1.4056250000e+002	 5.86087e-003
1051	 1.4062500000e+002	 1.53437e-002
1052	 1.4068750000e+002	 1.57577e-002
1053	 1.4075000000e+002	 1.26126e-002
1054	 1.4081250000e+002	 9.73827e-003
1055	 1.4087500000e+002	 1.23918e-002
1056	 1.4093750000e+002	 1.10232e-002
1057	 1.4100000000e+002	 9.54442e-003
1058	 1.4106250000e+002	 9.13798e-003
1059	 1.4112500000e+002	 4.37221e-003
1060	 1.4118750000e+002	 5.22478e-003
1061	 1.4125000000e+002	 5.81426e-003
1062	 1.4131250000e+002	 6.02833e-003
1063	 1.4137500000e+002	 7.20463e-003
1064	 1.4143750000e+002	 8.04820e-003
1065	 1.4150000000e+002	 6.40059e-003
1066	 1.4156250000e+002	 8.14656e-003
1067	 1.4162500000e+002	 6.63702e-003
1068	 1.4168750000e+002	 6.98986e-003
1069	 1.4175000000e+002	 7.32731e-003
1070	 1.4181250000e+002	 4.82199e-003
1071	 1.4187500000e+002	 6.95568e-003
1072	 1.4193750000e+002	 7.11033e-003
1073	 1.4200000000e+002	 4.91256e-003
1074	 1.4206250000e+002	 9.61501e-003
1075	 1.4212500000e+002	 1.69788e-002
1076	 1.4218750000e+002	 9.78267e-003
1077	 1.4225000000e+002	 6.06838e-003
1078	 1.4231250000e+002	 6.53481e-003
1079	 1.4237500000e+002	 9.41826e-003
1080	 1.4243750000e+002	 3.66052e-003
1081	 1.4250000000e+002	 1.29494e-002
1082	 1.4256250000e+002	 2.03016e-002
1083	 1.4262500000e+002	 6.57293e-003
1084	 1.4268750000e+002	 4.02848e-003
1085	 1.4275000000e+002	 1.55464e-003
1086	 1.4281250000e+002	 1.04888e-003
1087	 1.4287500000e+002	 3.40030e-003
1088	 1.4293750000e+002	 6.82857e-003
1089	 1.4300000000e+002	 1.17423e-002
1090	 1.4306250000e+002	 1.34851e-002
1091	 1.4312500000e+002	 1.08997e-002
1092	 1.4318750000e+002	 7.26134e-003
1093	 1.4325000000e+002	 1.04301e-002
1094	 1.4331250000e+002	 1.19463e-002
1095	 1.4337500000e+002	 6.21733e-003
1096	 1.4343750000e+002	 7.32616e-003
1097	 1.4350000000e+002	 1.20968e-002
1098	 1.4356250000e+002	 1.00092e-002
1099	 1.4362500000e+002	 1.61188e-002
1100	 1.4368750000e+002	 1.15766e-002
1101	 1.4375000000e+002	 1.13208e-002
1102	 1.4381250000e+002	 9.69208e-003
1103	 1.4387500000e+002	 2.02705e-002
1104	 1.4393750000e+002	 2.03027e-002
1105	 1.4400000000e+002	 1.12002e-002
1106	 1.4406250000e+002	 8.90770e-003
1107	 1.4412500000e+002	 1.15832e-002
1108	 1.4418750000e+002	 1.28888e-002
1109	 1.4425000000e+002	 6.18336e-003
1110	 1.4431250000e+002	 5.22227e-003
1111	 1.4437500000e+002	 5.66537e-003
1112	 1.4443750000e+002	 6.39813e-003
1113	 1.4450000000e+002	 4.31809e-003
1114	 1.4456250000e+002	 3.75533e-003
1115	 1.4462500000e+002	 1.25020e-002
1116	 1.4468750000e+002	 6.05070e-003
1117	 1.4475000000e+002	 7.39282e-003
1118	 1.4481250000e+002	 1.39791e-002
1119	 1.4487500000e+002	 7.65955e-003
1120	 1.4493750000e+002	 7.58138e-003
1121	 1.4500000000e+002	 4.29329e-003
1122	 1.4506250000e+002	 3.24799e-003
1123	 1.4512500000e+002	 1.06331e-002
1124	 1.4518750000e+002	 1.33749e-002
1125	 1.4525000000e+002	 6.04798e-003
1126	 1.4531250000e+002	 3.12726e-003
1127	 1.4537500000e+002	 1.76208e-003
1128	 1.4543750000e+002	 4.19544e-003
1129	 1.4550000000e+002	 1.62019e-002
1130	 1.4556250000e+002	 3.13377e-002
1131	 1.4562500000e+002	 1.90877e-002
1132	 1.4568750000e+002	 1.50744e-002
1133	 1.4575000000e+002	 1.55692e-002
1134	 1.4581250000e+002	 2.98899e-002
1135	 1.4587500000e+002	 2.25851e-002
1136	 1.4593750000e+002	 1.55499e-002
1137	 1.4600000000e+002	 1.99591e-002
1138	 1.4606250000e+002	 1.19811e-002
1139	 1.4612500000e+002	 1.11074e-002
1140	 1.4618750000e+002	 5.97394e-003
1141	 1.4625000000e+002	 6.88487e-003
1142	 1.4631250000e+002	 1.41690e-002
1143	 1.4637500000e+002	 1.62604e-002
1144	 1.4643750000e+002	 1.17094e-002
1145	 1.4650000000e+002	 2.94377e-002
1146	 1.4656250000e+002	 3.96626e-002
1147	 1.4662500000e+002	 1.64488e-002
1148	 1.4668750000e+002	 1.15427e-002
1149	 1.4675000000e+002	 1.36916e-002
1150	 1.4681250000e+002	 7.24251e-003
1151	 1.4687500000e+002	 1.94069e-002
1152	 1.4693750000e+002	 1.77244e-002
1153	 1.4700000000e+002	 9.28287e-003
1154	 1.4706250000e+002	 1.62321e-002
1155	 1.4712500000e+002	 1.32800e-002
1156	 1.4718750000e+002	 9.70041e-003
1157	 1.4725000000e+002	 1.95608e-002
1158	 1.4731250000e+002	 2.40901e-002
1159	 1.4737500000e+002	 2.11039e-002
1160	 1.4743750000e+002	 1.95175e-002
1161	 1.4750000000e+002	 2.95897e-002
1162	 1.4756250000e+002	 2.01106e-002
1163	 1.4762500000e+002	 4.71291e-002
1164	 1.4768750000e+002	 3.84030e-002
1165	 1.4775000000e+002	 1.12410e-002
1166	 1.4781250000e+002	 1.16507e-002
1167	 1.4787500000e+002	 1.44291e-002
1168	 1.4793750000e+002	 8.40808e-003
1169	 1.4800000000e+002	 6.55843e-003
1170	 1.4806250000e+002	 2.50882e-002
1171	 1.4812500000e+002	 1.63012e-002
1172	 1.4818750000e+002	 1.03938e-002
1173	 1.4825000000e+002	 1.13055e-002
1174	 1.4831250000e+002	 1.09345e-002
1175	 1.4837500000e+002	 1.06165e-002
1176	 1.4843750000e+002	 7.48315e-003
1177	 1.4850000000e+002	 7.77477e-003
1178	 1.4856250000e+002	 1.10087e-002
1179	 1.4862500000e+002	 1.63513e-002
1180	 1.4868750000e+002	 7.23507e-003
1181	 1.4875000000e+002	 1.14391e-002
1182	 1.4881250000e+002	 8.00704e-003
1183	 1.4887500000e+002	 2.10723e-002
1184	 1.4893750000e+002	 3.28814e-002
1185	 1.4900000000e+002	 2.59868e-002
1186	 1.4906250000e+002	 2.29269e-002
1187	 1.4912500000e+002	 2.46245e-002
1188	 1.4918750000e+002	 1.60049e-002
1189	 1.4925000000e+002	 1.59556e-002
1190	 1.4931250000e+002	 2.66615e-002
1191	 1.4937500000e+002	 2.32336e-002
1192	 1.4943750000e+002	 2.46675e-002
1193	 1.4950000000e+002	 2.26519e-002
1194	 1.4956250000e+002	 2.68618e-002
1195	 1.4962500000e+002	 1.90821e-002
1196	 1.4968750000e+002	 6.79502e-003
1197	 1.4975000000e+002	 1.19587e-002
1198	 1.4981250000e+002	 1.94499e-002
1199	 1.4987500000e+002	 9.30917e-003
1200	 1.4993750000e+002	 9.99301e-003
1201	 1.5000000000e+002	 1.70274e-002
1202	 1.5006250000e+002	 1.99339e-002
1203	 1.5012500000e+002	 1.77857e-002
1204	 1.5018750000e+002	 5.49581e-003
1205	 1.5025000000e+002	 8.04903e-003
1206	 1.5031250000e+002	 1.03579e-002
1207	 1.5037500000e+002	 1.24274e-002
1208	 1.5043750000e+002	 1.95203e-002
1209	 1.5050000000e+002	 3.61688e-002
1210	 1.5056250000e+002	 3.72575e-002
1211	 1.5062500000e+002	 2.56585e-002
1212	 1.5068750000e+002	 2.02614e-002
1213	 1.5075000000e+002	 1.86397e-002
1214	 1.5081250000e+002	 2.58606e-002
1215	 1.5087500000e+002	 3.96014e-002
1216	 1.5093750000e+002	 2.74406e-002
1217	 1.5100000000e+002	 3.27164e-002
1218	 1.5106250000e+002	 4.11318e-002
1219	 1.5112500000e+002	 3.38039e-002
1220	 1.5118750000e+002	 2.64164e-002
1221	 1.5125000000e+002	 1.66884e-002
1222	 1.5131250000e+002	 1.88087e-002
1223	 1.5137500000e+002	 2.32843e-002
1224	 1.5143750000e+002	 3.02096e-002
1225	 1.5150000000e+002	 2.40372e-002
1226	 1.5156250000e+002	 2.64249e-002
1227	 1.5162500000e+002	 3.10377e-002
1228	 1.5168750000e+002	 5.49670e-002
1229	 1.5175000000e+002	 4.18635e-002
1230	 1.5181250000e+002	 5.29622e-002
1231	 1.5187500000e+002	 3.01300e-002
1232	 1.5193750000e+002	 1.92417e-002
1233	 1.5200000000e+002	 2.30127e-002
1234	 1.5206250000e+002	 2.62989e-002
1235	 1.5212500000e+002	 3.44784e-002
1236	 1.5218750000e+002	 2.58634e-002
1237	 1.5225000000e+002	 2.14442e-002
1238	 1.5231250000e+002	 6.13114e-003
1239	 1.5237500000e+002	 6.23725e-003
1240	 1.5243750000e+002	 1.76668e-002
1241	 1.5250000000e+002	 2.65027e-002
1242	 1.5256250000e+002	 1.36130e-002
1243	 1.5262500000e+002	 2.49194e-002
1244	 1.5268750000e+002	 1.23635e-002
1245	 1.5275000000e+002	 1.69276e-002
1246	 1.5281250000e+002	 4.03748e-002
1247	 1.5287500000e+002	 6.23103e-002
1248	 1.5293750000e+002	 8.21384e-002
1249	 1.5300000000e+002	 1.04047e-001
1250	 1.5306250000e+002	 6.46784e-002
1251	 1.5312500000e+002	 4.04081e-002
1252	 1.5318750000e+002	 3.09728e-002
1253	 1.5325000000e+002	 3.45963e-002
1254	 1.5331250000e+002	 6.10558e-002
1255	 1.5337500000e+002	 3.47674e-002
1256	 1.5343750000e+002	 2.15510e-002
1257	 1.5350000000e+002	 1.63613e-002
1258	 1.5356250000e+002	 2.13623e-002
1259	 1.5362500000e+002	 2.27056e-002
1260	 1.5368750000e+002	 1.08091e-002
1261	 1.5375000000e+002	 4.15884e-002
1262	 1.5381250000e+002	 7.81504e-002
1263	 1.5387500000e+002	 8.42630e-002
1264	 1.5393750000e+002	 6.46828e-002
1265	 1.5400000000e+002	 5.15884e-002
1266	 1.5406250000e+002	 4.13723e-002
1267	 1.5412500000e+002	 3.08234e-002
1268	 1.5418750000e+002	 2.31729e-002
1269	 1.5425000000e+002	 4.15489e-002
1270	 1.5431250000e+002	 4.84454e-002
1271	 1.5437500000e+002	 5.73045e-002
1272	 1.5443750000e+002	 9.99266e-002
1273	 1.5450000000e+002	 6.55390e-002
1274	 1.5456250000e+002	 6.97063e-002
1275	 1.5462500000e+002	 8.78327e-002
1276	 1.5468750000e+002	 4.19375e-002
1277	 1.5475000000e+002	 1.49065e-002
1278	 1.5481250000e+002	 2.19040e-002
1279	 1.5487500000e+002	 4.34462e-002
1280	 1.5493750000e+002	 5.24619e-002
1281	 1.5500000000e+002	 5.23907e-002
1282	 1.5506250000e+002	 4.65602e-002
1283	 1.5512500000e+002	 6.86363e-002
1284	 1.5518750000e+002	 1.20720e-001
1285	 1.5525000000e+002	 8.30205e-002
1286	 1.5531250000e+002	 1.11312e-001
1287	 1.5537500000e+002	 2.13464e-001
1288	 1.5543750000e+002	 1.19556e-001
1289	 1.5550000000e+002	 6.29908e-002
1290	 1.5556250000e+002	 1.67069e-001
1291	 1.5562500000e+002	 1.08933e-001
1292	 1.5568750000e+002	 9.41996e-002
1293	 1.5575000000e+002	 1.07743e-001
1294	 1.5581250000e+002	 1.57598e-001
1295	 1.5587500000e+002	 1.21538e-001
1296	 1.5593750000e+002	 3.83370e-002
1297	 1.5600000000e+002	 3.44079e-002
1298	 1.5606250000e+002	 8.02234e-002
1299	 1.5612500000e+002	 1.17924e-001
1300	 1.5618750000e+002	 6.70007e-002
1301	 1.5625000000e+002	 3.24557e-002
1302	 1.5631250000e+002	 6.01641e-002
1303	 1.5637500000e+002	 1.03920e-001
1304	 1.5643750000e+002	 8.71766e-002
1305	 1.5650000000e+002	 3.34320e-002
1306	 1.5656250000e+002	 3.43738e-002
1307	 1.5662500000e+002	 7.69309e-002
1308	 1.5668750000e+002	 9.06943e-002
1309	 1.5675000000e+002	 8.10849e-002
1310	 1.5681250000e+002	 9.02562e-002
1311	 1.5687500000e+002	 1.13497e-001
1312	 1.5693750000e+002	 1.79909e-001
1313	 1.5700000000e+002	 2.41154e-001
1314	 1.5706250000e+002	 1.14730e-001
1315	 1.5712500000e+002	 7.98442e-002
1316	 1.5718750000e+002	 5.29074e-002
1317	 1.5725000000e+002	 5.35138e-002
1318	 1.5731250000e+002	 6.86723e-002
1319	 1.5737500000e+002	 6.20708e-002
1320	 1.5743750000e+002	 6.14425e-002
1321	 1.5750000000e+002	 7.69219e-002
1322	 1.5756250000e+002	 1.33306e-001
1323	 1.5762500000e+002	 1.81078e-001
1324	 1.5768750000e+002	 1.26088e-001
1325	 1.5775000000e+002	 1.39523e-001
1326	 1.5781250000e+002	 1.69646e-001
1327	 1.5787500000e+002	 1.22603e-001
1328	 1.5793750000e+002	 1.52983e-001
1329	 1.5800000000e+002	 1.30074e-001
1330	 1.5806250000e+002	 5.86178e-002
1331	 1.5812500000e+002	 7.36398e-002
1332	 1.5818750000e+002	 1.80923e-001
1333	 1.5825000000e+002	 1.68891e-001
1334	 1.5831250000e+002	 1.67388e-001
1335	 1.5837500000e+002	 8.39225e-002
1336	 1.5843750000e+002	 5.72923e-002
1337	 1.5850000000e+002	 6.75967e-002
1338	 1.5856250000e+002	 9.33409e-002
1339	 1.5862500000e+002	 7.77659e-002
1340	 1.5868750000e+002	 1.47080e-001
1341	 1.5875000000e+002	 1.90321e-001
1342	 1.5881250000e+002	 1.85147e-001
1343	 1.5887500000e+002	 2.54146e-001
1344	 1.5893750000e+002	 2.23512e-001
1345	 1.5900000000e+002	 3.45938e-001
1346	 1.5906250000e+002	 4.71301e-001
1347	 1.5912500000e+002	 3.52238e-001
1348	 1.5918750000e+002	 2.48596e-001
1349	 1.5925000000e+002	 2.37918e-001
1350	 1.5931250000e+002	 3.08644e-001
1351	 1.5937500000e+002	 1.98364e-001
1352	 1.5943750000e+002	 2.12110e-001
1353	 1.5950000000e+002	 2.22570e-001
1354	 1.5956250000e+002	 8.20628e-002
1355	 1.5962500000e+002	 1.24121e-001
1356	 1.5968750000e+002	 4.37282e-001
1357	 1.5975000000e+002	 2.70050e-001
1358	 1.5981250000e+002	 7.25617e-002
1359	 1.5987500000e+002	 8.21569e-002
1360	 1.5993750000e+002	 1.32194e-001
1361	 1.6000000000e+002	 2.08386e-001
1362	 1.6006250000e+002	 3.64526e-001
1363	 1.6012500000e+002	 7.47639e-001
1364	 1.6018750000e+002	 7.39872e-001
1365	 1.6025000000e+002	 4.31252e-001
1366	 1.6031250000e+002	 5.57957e-001
1367	 1.6037500000e+002	 7.51342e-001
1368	 1.6043750000e+002	 3.64241e-001
1369	 1.6050000000e+002	 1.50580e-001
1370	 1.6056250000e+002	 1.53097e-001
1371	 1.6062500000e+002	 2.34033e-001
1372	 1.6068750000e+002	 2.18518e-001
1373	 1.6075000000e+002	 2.88197e-001
1374	 1.6081250000e+002	 4.92174e-001
1375	 1.6087500000e+002	 5.02386e-001
1376	 1.6093750000e+002	 4.77565e-001
1377	 1.6100000000e+002	 4.40852e-001
1378	 1.6106250000e+002	 1.94670e-001
1379	 1.6112500000e+002	 3.48682e-001
1380	 1.6118750000e+002	 4.29660e-001
1381	 1.6125000000e+002	 1.78498e-001
1382	 1.6131250000e+002	 1.63266e-001
1383	 1.6137500000e+002	 3.84563e-001
1384	 1.6143750000e+002	 6.01040e-001
1385	 1.6150000000e+002	 4.44189e-001
1386	 1.6156250000e+002	 2.04249e-001
1387	 1.6162500000e+002	 3.04758e-001
1388	 1.6168750000e+002	 3.75764e-001
1389	 1.6175000000e+002	 2.30007e-001
1390	 1.6181250000e+002	 1.54481e-001
1391	 1.6187500000e+002	 3.31132e-001
1392	 1.6193750000e+002	 5.20664e-001
1393	 1.6200000000e+002	 3.63302e-001
1394	 1.6206250000e+002	 1.17977e-001
1395	 1.6212500000e+002	 2.20357e-001
1396	 1.6218750000e+002	 3.12211e-001
1397	 1.6225000000e+002	 7.14862e-001
1398	 1.6231250000e+002	 7.85750e-001
1399	 1.6237500000e+002	 4.83856e-001
1400	 1.6243750000e+002	 2.86845e-001
1401	 1.6250000000e+002	 2.37333e-001
1402	 1.6256250000e+002	 4.26548e-001
1403	 1.6262500000e+002	 5.02187e-001
1404	 1.6268750000e+002	 2.12444e-001
1405	 1.6275000000e+002	 1.57261e-001
1406	 1.6281250000e+002	 1.40565e-001
1407	 1.6287500000e+002	 6.85971e-002
1408	 1.6293750000e+002	 2.71346e-001
1409	 1.6300000000e+002	 4.06326e-001
1410	 1.6306250000e+002	 2.79215e-001
1411	 1.6312500000e+002	 1.53348e-001
1412	 1.6318750000e+002	 2.46381e-001
1413	 1.6325000000e+002	 1.87864e-001
1414	 1.6331250000e+002	 2.26088e-001
1415	 1.6337500000e+002	 2.09445e-001
1416	 1.6343750000e+002	 2.22804e-001
1417	 1.6350000000e+002	 2.20777e-001
1418	 1.6356250000e+002	 9.60557e-002
1419	 1.6362500000e+002	 9.79952e-002
1420	 1.6368750000e+002	 2.12003e-001
1421	 1.6375000000e+002	 3.27032e-001
1422	 1.6381250000e+002	 3.14154e-001
1423	 1.6387500000e+002	 1.56546e-001
1424	 1.6393750000e+002	 9.99948e-002
1425	 1.6400000000e+002	 2.55807e-001
1426	 1.6406250000e+002	 2.84300e-001
1427	 1.6412500000e+002	 1.88188e-001
1428	 1.6418750000e+002	 1.68832e-001
1429	 1.6425000000e+002	 2.28506e-001
1430	 1.6431250000e+002	 3.10272e-001
1431	 1.6437500000e+002	 1.96884e-001
1432	 1.6443750000e+002	 1.26892e-001
1433	 1.6450000000e+002	 9.37784e-002
1434	 1.6456250000e+002	 1.40073e-001
1435	 1.6462500000e+002	 3.25789e-001
1436	 1.6468750000e+002	 3.00434e-001
1437	 1.6475000000e+002	 1.69304e-001
1438	 1.6481250000e+002	 1.37369e-001
1439	 1.6487500000e+002	 1.31954e-001
1440	 1.6493750000e+002	 1.49053e-001
1441	 1.6500000000e+002	 1.03362e-001
1442	 1.6506250000e+002	 1.08684e-001
1443	 1.6512500000e+002	 1.03417e-001
1444	 1.6518750000e+002	 1.16698e-001
1445	 1.6525000000e+002	 1.29657e-001
1446	 1.6531250000e+002	 1.89728e-001
1447	 1.6537500000e+002	 2.28370e-001
1448	 1.6543750000e+002	 1.23101e-001
1449	 1.6550000000e+002	 1.32782e-001
1450	 1.6556250000e+002	 7.70179e-002
1451	 1.6562500000e+002	 7.88801e-002
1452	 1.6568750000e+002	 4.45320e-002
1453	 1.6575000000e+002	 5.48223e-002
1454	 1.6581250000e+002	 8.00737e-002
1455	 1.6587500000e+002	 1.04736e-001
1456	 1.6593750000e+002	 2.69860e-002
1457	 1.6600000000e+002	 5.85874e-002
1458	 1.6606250000e+002	 8.80130e-002
1459	 1.6612500000e+002	 1.38310e-001
1460	 1.6618750000e+002	 9.62966e-002
1461	 1.6625000000e+002	 5.01771e-002
1462	 1.6631250000e+002	 1.14264e-001
1463	 1.6637500000e+002	 1.15924e-001
1464	 1.6643750000e+002	 1.09933e-001
1465	 1.6650000000e+002	 7.35019e-002
1466	 1.6656250000e+002	 6.07887e-002
1467	 1.6662500000e+002	 5.05665e-002
1468	 1.6668750000e+002	 6.36407e-002
1469	 1.6675000000e+002	 6.58317e-002
1470	 1.6681250000e+002	 6.94276e-002
1471	 1.6687500000e+002	 1.00730e-001
1472	 1.6693750000e+002	 6.27785e-002
1473	 1.6700000000e+002	 6.04540e-002
1474	 1.6706250000e+002	 6.06709e-002
1475	 1.6712500000e+002	 6.43407e-002
1476	 1.6718750000e+002	 6.41466e-002
1477	 1.6725000000e+002	 5.55952e-002
1478	 1.6731250000e+002	 7.02289e-002
1479	 1.6737500000e+002	 5.57685e-002
1480	 1.6743750000e+002	 5.73578e-002
1481	 1.6750000000e+002	 8.04763e-002
1482	 1.6756250000e+002	 5.11035e-002
1483	 1.6762500000e+002	 2.66875e-002
1484	 1.6768750000e+002	 4.50942e-002
1485	 1.6775000000e+002	 7.04074e-002
1486	 1.6781250000e+002	 5.50158e-002
1487	 1.6787500000e+002	 5.53810e-002
1488	 1.6793750000e+002	 6.43068e-002
1489	 1.6800000000e+002	 6.99859e-002
1490	 1.6806250000e+002	 5.74831e-002
1491	 1.6812500000e+002	 6.51235e-002
1492	 1.6818750000e+002	 1.08384e-001
1493	 1.6825000000e+002	 9.70007e-002
1494	 1.6831250000e+002	 5.06043e-002
1495	 1.6837500000e+002	 3.85994e-002
1496	 1.6843750000e+002	 4.67756e-002
1497	 1.6850000000e+002	 9.42177e-002
1498	 1.6856250000e+002	 6.07270e-002
1499	 1.6862500000e+002	 6.81246e-002
1500	 1.6868750000e+002	 2.85752e-002
1501	 1.6875000000e+002	 3.15397e-002
1502	 1.6881250000e+002	 4.82657e-002
1503	 1.6887500000e+002	 6.65166e-002
1504	 1.6893750000e+002	 1.24185e-001
1505	 1.6900000000e+002	 5.75209e-002
1506	 1.6906250000e+002	 4.15684e-002
1507	 1.6912500000e+002	 5.37232e-002
1508	 1.6918750000e+002	 6.52078e-002
1509	 1.6925000000e+002	 8.22281e-002
1510	 1.6931250000e+002	 1.46003e-001
1511	 1.6937500000e+002	 9.64324e-002
1512	 1.6943750000e+002	 2.68327e-002
1513	 1.6950000000e+002	 4.03904e-002
1514	 1.6956250000e+002	 5.60821e-002
1515	 1.6962500000e+002	 6.13290e-002
1516	 1.6968750000e+002	 4.33669e-002
1517	 1.6975000000e+002	 5.02563e-002
1518	 1.6981250000e+002	 7.18821e-002
1519	 1.6987500000e+002	 1.18106e-001
1520	 1.6993750000e+002	 8.19635e-002
1521	 1.7000000000e+002	 4.71337e-002
1522	 1.7006250000e+002	 2.70618e-002
1523	 1.7012500000e+002	 4.48621e-002
1524	 1.7018750000e+002	 3.72859e-002
1525	 1.7025000000e+002	 2.53310e-002
1526	 1.7031250000e+002	 1.83162e-002
1527	 1.7037500000e+002	 1.43099e-002
1528	 1.7043750000e+002	 2.63867e-002
1529	 1.7050000000e+002	 3.57956e-002
1530	 1.7056250000e+002	 3.21587e-002
1531	 1.7062500000e+002	 5.09043e-002
1532	 1.7068750000e+002	 5.18349e-002
1533	 1.7075000000e+002	 2.67509e-002
1534	 1.7081250000e+002	 2.47575e-002
1535	 1.7087500000e+002	 2.28298e-002
1536	 1.7093750000e+002	 3.77032e-002
1537	 1.7100000000e+002	 2.51510e-002
1538	 1.7106250000e+002	 3.07835e-002
1539	 1.7112500000e+002	 5.24475e-002
1540	 1.7118750000e+002	 6.83180e-002
1541	 1.7125000000e+002	 5.05249e-002
1542	 1.7131250000e+002	 2.97281e-002
1543	 1.7137500000e+002	 2.70930e-002
1544	 1.7143750000e+002	 2.62382e-002
1545	 1.7150000000e+002	 1.33657e-002
1546	 1.7156250000e+002	 1.79381e-002
1547	 1.7162500000e+002	 1.52096e-002
1548	 1.7168750000e+002	 2.87585e-002
1549	 1.7175000000e+002	 1.97253e-002
1550	 1.7181250000e+002	 2.02602e-002
1551	 1.7187500000e+002	 2.50799e-002
1552	 1.7193750000e+002	 2.41924e-002
1553	 1.7200000000e+002	 3.12339e-002
1554	 1.7206250000e+002	 3.53058e-002
1555	 1.7212500000e+002	 3.30503e-002
1556	 1.7218750000e+002	 5.52250e-002
1557	 1.7225000000e+002	 6.34419e-002
1558	 1.7231250000e+002	 3.37550e-002
1559	 1.7237500000e+002	 4.16622e-002
1560	 1.7243750000e+002	 2.77195e-002
1561	 1.7250000000e+002	 1.19324e-002
1562	 1.7256250000e+002	 2.60871e-002
1563	 1.7262500000e+002	 3.46558e-002
1564	 1.7268750000e+002	 3.43359e-002
1565	 1.7275000000e+002	 3.19990e-002
1566	 1.7281250000e+002	 3.16890e-002
1567	 1.7287500000e+002	 3.19105e-002
1568	 1.7293750000e+002	 1.53096e-002
1569	 1.7300000000e+002	 1.02942e-002
1570	 1.7306250000e+002	 1.76221e-002
1571	 1.7312500000e+002	 3.38791e-002
1572	 1.7318750000e+002	 2.46287e-002
1573	 1.7325000000e+002	 4.16681e-002
1574	 1.7331250000e+002	 3.52194e-002
1575	 1.7337500000e+002	 3.01560e-002
1576	 1.7343750000e+002	 2.53231e-002
1577	 1.7350000000e+002	 9.23601e-003
1578	 1.7356250000e+002	 1.35431e-002
1579	 1.7362500000e+002	 1.46042e-002
1580	 1.7368750000e+002	 3.46165e-002
1581	 1.7375000000e+002	 3.31994e-002
1582	 1.7381250000e+002	 3.08066e-002
1583	 1.7387500000e+002	 2.41989e-002
1584	 1.7393750000e+002	 1.48231e-002
1585	 1.7400000000e+002	 1.09500e-002
1586	 1.7406250000e+002	 8.83274e-003
1587	 1.7412500000e+002	 8.02312e-003
1588	 1.7418750000e+002	 1.24366e-002
1589	 1.7425000000e+002	 1.42978e-002
1590	 1.7431250000e+002	 1.52230e-002
1591	 1.7437500000e+002	 2.19115e-002
1592	 1.7443750000e+002	 1.76738e-002
1593	 1.7450000000e+002	 2.21229e-002
1594	 1.7456250000e+002	 2.44132e-002
1595	 1.7462500000e+002	 9.41352e-003
1596	 1.7468750000e+002	 1.54404e-002
1597	 1.7475000000e+002	 3.09551e-002
1598	 1.7481250000e+002	 4.77431e-002
1599	 1.7487500000e+002	 3.95226e-002
1600	 1.7493750000e+002	 1.39462e-002
1601	 1.7500000000e+002	 1.46591e-002
1602	 1.7506250000e+002	 3.29047e-002
1603	 1.7512500000e+002	 3.11714e-002
1604	 1.7518750000e+002	 1.93211e-002
1605	 1.7525000000e+002	 4.62249e-002
1606	 1.7531250000e+002	 3.34356e-002
1607	 1.7537500000e+002	 1.19154e-002
1608	 1.7543750000e+002	 1.22979e-002
1609	 1.7550000000e+002	 6.53935e-003
1610	 1.7556250000e+002	 1.82689e-002
1611	 1.7562500000e+002	 2.29832e-002
1612	 1.7568750000e+002	 5.83266e-003
1613	 1.7575000000e+002	 4.88717e-003
1614	 1.7581250000e+002	 5.58947e-003
1615	 1.7587500000e+002	 1.43743e-002
1616	 1.7593750000e+002	 1.65139e-002
1617	 1.7600000000e+002	 1.54418e-002
1618	 1.7606250000e+002	 2.66416e-002
1619	 1.7612500000e+002	 1.74362e-002
1620	 1.7618750000e+002	 1.16105e-002
1621	 1.7625000000e+002	 1.92858e-002
1622	 1.7631250000e+002	 2.15996e-002
1623	 1.7637500000e+002	 9.58529e-003
1624	 1.7643750000e+002	 2.19172e-002
1625	 1.7650000000e+002	 3.42165e-002
1626	 1.7656250000e+002	 1.67173e-002
1627	 1.7662500000e+002	 7.77611e-003
1628	 1.7668750000e+002	 6.43035e-003
1629	 1.7675000000e+002	 6.22076e-003
1630	 1.7681250000e+002	 1.19387e-002
1631	 1.7687500000e+002	 1.03138e-002
1632	 1.7693750000e+002	 1.65293e-002
1633	 1.7700000000e+002	 2.51736e-002
1634	 1.7706250000e+002	 1.87024e-002
1635	 1.7712500000e+002	 1.60441e-002
1636	 1.7718750000e+002	 1.53264e-002
1637	 1.7725000000e+002	 1.15320e-002
1638	 1.7731250000e+002	 8.14152e-003
1639	 1.7737500000e+002	 8.43407e-003
1640	 1.7743750000e+002	 1.62493e-002
1641	 1.7750000000e+002	 1.15913e-002
1642	 1.7756250000e+002	 3.67658e-003
1643	 1.7762500000e+002	 5.12358e-003
1644	 1.7768750000e+002	 6.50059e-003
1645	 1.7775000000e+002	 1.55904e-002
1646	 1.7781250000e+002	 1.75791e-002
1647	 1.7787500000e+002	 1.81690e-002
1648	 1.7793750000e+002	 1.51263e-002
1649	 1.7800000000e+002	 1.19960e-002
1650	 1.7806250000e+002	 1.20763e-002
1651	 1.7812500000e+002	 2.28394e-002
1652	 1.7818750000e+002	 2.12104e-002
1653	 1.7825000000e+002	 1.98984e-002
1654	 1.7831250000e+002	 1.69663e-002
1655	 1.7837500000e+002	 2.45288e-002
1656	 1.7843750000e+002	 2.46817e-002
1657	 1.7850000000e+002	 2.82811e-002
1658	 1.7856250000e+002	 1.14787e-002
1659	 1.7862500000e+002	 2.43501e-002
1660	 1.7868750000e+002	 1.56781e-002
1661	 1.7875000000e+002	 1.36460e-002
1662	 1.7881250000e+002	 1.81378e-002
1663	 1.7887500000e+002	 1.57204e-002
1664	 1.7893750000e+002	 1.17203e-002
1665	 1.7900000000e+002	 1.05022e-002
1666	 1.7906250000e+002	 7.83701e-003
1667	 1.7912500000e+002	 1.09324e-002
1668	 1.7918750000e+002	 8.67634e-003
1669	 1.7925000000e+002	 2.14067e-002
1670	 1.7931250000e+002	 1.69271e-002
1671	 1.7937500000e+002	 6.54672e-003
1672	 1.7943750000e+002	 8.80128e-003
1673	 1.7950000000e+002	 2.05215e-002
1674	 1.7956250000e+002	 1.63727e-002
1675	 1.7962500000e+002	 1.70153e-002
1676	 1.7968750000e+002	 1.01757e-002
1677	 1.7975000000e+002	 6.01943e-003
1678	 1.7981250000e+002	 9.58486e-003
1679	 1.7987500000e+002	 1.12957e-002
1680	 1.7993750000e+002	 1.03925e-002
1681	 1.8000000000e+002	 7.86794e-003
1682	 1.8006250000e+002	 9.88726e-003
1683	 1.8012500000e+002	 5.58570e-003
1684	 1.8018750000e+002	 5.06739e-003
1685	 1.8025000000e+002	 1.64918e-002
1686	 1.8031250000e+002	 1.02728e-002
1687	 1.8037500000e+002	 1.20988e-002
1688	 1.8043750000e+002	 4.74561e-002
1689	 1.8050000000e+002	 3.12456e-002
1690	 1.8056250000e+002	 1.71411e-002
1691	 1.8062500000e+002	 2.47958e-002
1692	 1.8068750000e+002	 4.08866e-002
1693	 1.8075000000e+002	 3.65373e-002
1694	 1.8081250000e+002	 2.10290e-002
1695	 1.8087500000e+002	 1.12915e-002
1696	 1.8093750000e+002	 1.20977e-002
1697	 1.8100000000e+002	 1.43819e-002
1698	 1.8106250000e+002	 1.96199e-002
1699	 1.8112500000e+002	 1.91095e-002
1700	 1.8118750000e+002	 4.96876e-003
1701	 1.8125000000e+002	 5.54929e-003
1702	 1.8131250000e+002	 1.45836e-002
1703	 1.8137500000e+002	 1.67128e-002
1704	 1.8143750000e+002	 1.23712e-002
1705	 1.8150000000e+002	 3.05014e-002
1706	 1.8156250000e+002	 2.71637e-002
1707	 1.8162500000e+002	 9.65244e-003
1708	 1.8168750000e+002	 1.79270e-002
1709	 1.8175000000e+002	 3.16594e-002
1710	 1.8181250000e+002	 1.08683e-002
1711	 1.8187500000e+002	 1.76306e-002
1712	 1.8193750000e+002	 4.76558e-002
1713	 1.8200000000e+002	 3.77608e-002
1714	 1.8206250000e+002	 1.81833e-002
1715	 1.8212500000e+002	 2.91217e-002
1716	 1.8218750000e+002	 1.23271e-002
1717	 1.8225000000e+002	 9.33641e-003
1718	 1.8231250000e+002	 1.45251e-002
1719	 1.8237500000e+002	 1.04897e-002
1720	 1.8243750000e+002	 8.64743e-003
1721	 1.8250000000e+002	 7.45964e-003
1722	 1.8256250000e+002	 5.81126e-003
1723	 1.8262500000e+002	 2.02755e-002
1724	 1.8268750000e+002	 1.83977e-002
1725	 1.8275000000e+002	 1.22337e-002
1726	 1.8281250000e+002	 1.09629e-002
1727	 1.8287500000e+002	 9.60596e-003
1728	 1.8293750000e+002	 1.50204e-002
1729	 1.8300000000e+002	 2.57014e-002
1730	 1.8306250000e+002	 1.95483e-002
1731	 1.8312500000e+002	 1.16758e-002
1732	 1.8318750000e+002	 1.78450e-002
1733	 1.8325000000e+002	 2.05910e-002
1734	 1.8331250000e+002	 2.15657e-002
1735	 1.8337500000e+002	 6.24042e-003
1736	 1.8343750000e+002	 1.57457e-002
1737	 1.8350000000e+002	 1.82793e-002
1738	 1.8356250000e+002	 2.02112e-002
1739	 1.8362500000e+002	 1.22346e-002
1740	 1.8368750000e+002	 2.06401e-002
1741	 1.8375000000e+002	 1.58856e-002
1742	 1.8381250000e+002	 2.10744e-002
1743	 1.8387500000e+002	 1.15839e-002
1744	 1.8393750000e+002	 9.92036e-003
1745	 1.8400000000e+002	 1.94171e-002
1746	 1.8406250000e+002	 1.33643e-002
1747	 1.8412500000e+002	 2.53828e-002
1748	 1.8418750000e+002	 3.01477e-002
1749	 1.8425000000e+002	 1.06845e-002
1750	 1.8431250000e+002	 1.33511e-002
1751	 1.8437500000e+002	 1.80548e-002
1752	 1.8443750000e+002	 1.73548e-002
1753	 1.8450000000e+002	 5.67554e-003
1754	 1.8456250000e+002	 9.17654e-003
1755	 1.8462500000e+002	 2.03206e-002
1756	 1.8468750000e+002	 1.40264e-002
1757	 1.8475000000e+002	 1.03730e-002
1758	 1.8481250000e+002	 1.63716e-002
1759	 1.8487500000e+002	 1.67050e-002
1760	 1.8493750000e+002	 4.50948e-003
1761	 1.8500000000e+002	 3.61772e-003
1762	 1.8506250000e+002	 6.42319e-003
1763	 1.8512500000e+002	 3.21724e-003
1764	 1.8518750000e+002	 5.64275e-003
1765	 1.8525000000e+002	 6.08235e-003
1766	 1.8531250000e+002	 8.58651e-003
1767	 1.8537500000e+002	 1.39935e-002
1768	 1.8543750000e+002	 1.63734e-002
1769	 1.8550000000e+002	 1.52130e-002
1770	 1.8556250000e+002	 1.23818e-002
1771	 1.8562500000e+002	 7.32493e-003
1772	 1.8568750000e+002	 5.64669e-003
1773	 1.8575000000e+002	 1.32193e-002
1774	 1.8581250000e+002	 1.34045e-002
1775	 1.8587500000e+002	 1.11463e-002
1776	 1.8593750000e+002	 9.56132e-003
1777	 1.8600000000e+002	 1.46933e-002
1778	 1.8606250000e+002	 1.01710e-002
1779	 1.8612500000e+002	 5.08693e-003
1780	 1.8618750000e+002	 8.21621e-003
1781	 1.8625000000e+002	 1.90741e-002
1782	 1.8631250000e+002	 2.42777e-002
1783	 1.8637500000e+002	 3.21152e-002
1784	 1.8643750000e+002	 1.34334e-002
1785	 1.8650000000e+002	 8.21021e-003
1786	 1.8656250000e+002	 1.46262e-002
1787	 1.8662500000e+002	 1.61173e-002
1788	 1.8668750000e+002	 3.08844e-002
1789	 1.8675000000e+002	 2.73300e-002
1790	 1.8681250000e+002	 5.84394e-003
1791	 1.8687500000e+002	 8.18801e-003
1792	 1.8693750000e+002	 9.69443e-003
1793	 1.8700000000e+002	 5.86971e-003
1794	 1.8706250000e+002	 4.70616e-003
1795	 1.8712500000e+002	 2.00058e-002
1796	 1.8718750000e+002	 2.27595e-002
1797	 1.8725000000e+002	 8.96120e-003
1798	 1.8731250000e+002	 1.39367e-002
1799	 1.8737500000e+002	 1.51908e-002
1800	 1.8743750000e+002	 5.89321e-003
1801	 1.8750000000e+002	 5.26268e-003
1802	 1.8756250000e+002	 4.07840e-003
1803	 1.8762500000e+002	 5.94943e-003
1804	 1.8768750000e+002	 9.84515e-003
1805	 1.8775000000e+002	 1.00196e-002
1806	 1.8781250000e+002	 1.39126e-002
1807	 1.8787500000e+002	 1.39687e-002
1808	 1.8793750000e+002	 1.09856e-002
1809	 1.8800000000e+002	 1.04523e-002
1810	 1.8806250000e+002	 1.57146e-002
1811	 1.8812500000e+002	 2.06445e-002
1812	 1.8818750000e+002	 4.46046e-003
1813	 1.8825000000e+002	 1.44491e-002
1814	 1.8831250000e+002	 1.53584e-002
1815	 1.8837500000e+002	 1.04432e-002
1816	 1.8843750000e+002	 1.22292e-002
1817	 1.8850000000e+002	 5.62128e-003
1818	 1.8856250000e+002	 4.41808e-003
1819	 1.8862500000e+002	 9.17383e-003
1820	 1.8868750000e+002	 1.65777e-002
1821	 1.8875000000e+002	 9.98437e-003
1822	 1.8881250000e+002	 9.87305e-003
1823	 1.8887500000e+002	 1.21227e-002
1824	 1.8893750000e+002	 1.38387e-002
1825	 1.8900000000e+002	 9.38291e-003
1826	 1.8906250000e+002	 6.77573e-003
1827	 1.8912500000e+002	 1.33867e-002
1828	 1.8918750000e+002	 9.63979e-003
1829	 1.8925000000e+002	 8.18468e-003
1830	 1.8931250000e+002	 7.92721e-003
1831	 1.8937500000e+002	 1.68166e-002
1832	 1.8943750000e+002	 1.59429e-002
1833	 1.8950000000e+002	 2.74852e-002
1834	 1.8956250000e+002	 3.05020e-002
1835	 1.8962500000e+002	 1.94080e-002
1836	 1.8968750000e+002	 3.79778e-003
1837	 1.8975000000e+002	 4.99759e-003
1838	 1.8981250000e+002	 3.63170e-003
1839	 1.8987500000e+002	 4.47404e-003
1840	 1.8993750000e+002	 1.11291e-002
1841	 1.9000000000e+002	 9.02447e-003
1842	 1.9006250000e+002	 8.34366e-003
1843	 1.9012500000e+002	 1.13839e-002
1844	 1.9018750000e+002	 7.83821e-003
1845	 1.9025000000e+002	 2.13148e-002
1846	 1.9031250000e+002	 2.33545e-002
1847	 1.9037500000e+002	 3.35784e-002
1848	 1.9043750000e+002	 3.20952e-002
1849	 1.9050000000e+002	 1.15356e-002
1850	 1.9056250000e+002	 1.68457e-002
1851	 1.9062500000e+002	 1.79754e-002
1852	 1.9068750000e+002	 1.70814e-002
1853	 1.9075000000e+002	 1.70681e-002
1854	 1.9081250000e+002	 1.29224e-002
1855	 1.9087500000e+002	 1.39501e-002
1856	 1.9093750000e+002	 1.90166e-002
1857	 1.9100000000e+002	 3.19760e-002
1858	 1.9106250000e+002	 1.43107e-002
1859	 1.9112500000e+002	 1.08031e-002
1860	 1.9118750000e+002	 1.62305e-002
1861	 1.9125000000e+002	 9.36950e-003
1862	 1.9131250000e+002	 1.48738e-002
1863	 1.9137500000e+002	 1.25496e-002
1864	 1.9143750000e+002	 1.50152e-002
1865	 1.9150000000e+002	 1.32530e-002
1866	 1.9156250000e+002	 1.09955e-002
1867	 1.9162500000e+002	 9.43075e-003
1868	 1.9168750000e+002	 1.74088e-002
1869	 1.9175000000e+002	 1.43104e-002
1870	 1.9181250000e+002	 1.14802e-002
1871	 1.9187500000e+002	 1.56919e-002
1872	 1.9193750000e+002	 1.27337e-002
1873	 1.9200000000e+002	 1.06163e-002
1874	 1.9206250000e+002	 1.23004e-002
1875	 1.9212500000e+002	 9.98181e-003
1876	 1.9218750000e+002	 2.93372e-002
1877	 1.9225000000e+002	 3.34822e-002
1878	 1.9231250000e+002	 1.86901e-002
1879	 1.9237500000e+002	 1.23123e-002
1880	 1.9243750000e+002	 2.12421e-002
1881	 1.9250000000e+002	 2.41370e-002
1882	 1.9256250000e+002	 1.73086e-002
1883	 1.9262500000e+002	 9.36129e-003
1884	 1.9268750000e+002	 7.83886e-003
1885	 1.9275000000e+002	 9.53296e-003
1886	 1.9281250000e+002	 1.86968e-002
1887	 1.9287500000e+002	 1.25233e-002
1888	 1.9293750000e+002	 9.13881e-003
1889	 1.9300000000e+002	 7.46852e-003
1890	 1.9306250000e+002	 5.55726e-003
1891	 1.9312500000e+002	 1.09458e-002
1892	 1.9318750000e+002	 1.09720e-002
1893	 1.9325000000e+002	 8.77695e-003
1894	 1.9331250000e+002	 1.92246e-002
1895	 1.9337500000e+002	 1.72942e-002
1896	 1.9343750000e+002	 8.14024e-003
1897	 1.9350000000e+002	 1.75793e-002
1898	 1.9356250000e+002	 1.27085e-002
1899	 1.9362500000e+002	 1.69700e-002
1900	 1.9368750000e+002	 1.97890e-002
1901	 1.9375000000e+002	 1.81342e-002
1902	 1.9381250000e+002	 7.67010e-003
1903	 1.9387500000e+002	 4.50830e-003
1904	 1.9393750000e+002	 8.55428e-003
1905	 1.9400000000e+002	 1.28078e-002
1906	 1.9406250000e+002	 1.93651e-002
1907	 1.9412500000e+002	 1.15950e-002
1908	 1.9418750000e+002	 7.87372e-003
1909	 1.9425000000e+002	 1.52706e-002
1910	 1.9431250000e+002	 1.11406e-002
1911	 1.9437500000e+002	 1.94378e-002
1912	 1.9443750000e+002	 2.53614e-002
1913	 1.9450000000e+002	 1.11357e-002
1914	 1.9456250000e+002	 1.38300e-002
1915	 1.9462500000e+002	 1.57267e-002
1916	 1.9468750000e+002	 3.07964e-002
1917	 1.9475000000e+002	 1.76626e-002
1918	 1.9481250000e+002	 1.71770e-002
1919	 1.9487500000e+002	 1.32991e-002
1920	 1.9493750000e+002	 4.90044e-003
1921	 1.9500000000e+002	 1.36987e-002
1922	 1.9506250000e+002	 1.82958e-002
1923	 1.9512500000e+002	 1.33867e-002
1924	 1.9518750000e+002	 9.63543e-003
1925	 1.9525000000e+002	 7.40882e-003
1926	 1.9531250000e+002	 1.37482e-002
1927	 1.9537500000e+002	 1.39646e-002
1928	 1.9543750000e+002	 1.44804e-002
1929	 1.9550000000e+002	 2.31756e-002
1930	 1.9556250000e+002	 1.56974e-002
1931	 1.9562500000e+002	 1.99013e-002
1932	 1.9568750000e+002	 2.75058e-002
1933	 1.9575000000e+002	 1.29703e-002
1934	 1.9581250000e+002	 8.98386e-003
1935	 1.9587500000e+002	 1.93618e-002
1936	 1.9593750000e+002	 1.97734e-002
1937	 1.9600000000e+002	 1.31198e-002
1938	 1.9606250000e+002	 1.23876e-002
1939	 1.9612500000e+002	 1.66594e-002
1940	 1.9618750000e+002	 1.79202e-002
1941	 1.9625000000e+002	 6.67328e-003
1942	 1.9631250000e+002	 6.10854e-003
1943	 1.9637500000e+002	 3.97298e-003
1944	 1.9643750000e+002	 1.56448e-003
1945	 1.9650000000e+002	 6.68600e-003
1946	 1.9656250000e+002	 1.03053e-002
1947	 1.9662500000e+002	 1.97879e-002
1948	 1.9668750000e+002	 2.80337e-002
1949	 1.9675000000e+002	 1.08998e-002
1950	 1.9681250000e+002	 5.36713e-003
1951	 1.9687500000e+002	 1.07478e-002
1952	 1.9693750000e+002	 3.88003e-002
1953	 1.9700000000e+002	 3.56043e-002
1954	 1.9706250000e+002	 2.34481e-002
1955	 1.9712500000e+002	 2.33687e-002
1956	 1.9718750000e+002	 2.93717e-002
1957	 1.9725000000e+002	 2.00318e-002
1958	 1.9731250000e+002	 2.13613e-002
1959	 1.9737500000e+002	 1.01174e-002
1960	 1.9743750000e+002	 1.21499e-002
1961	 1.9750000000e+002	 3.12938e-002
1962	 1.9756250000e+002	 3.74672e-002
1963	 1.9762500000e+002	 2.14135e-002
1964	 1.9768750000e+002	 1.54475e-002
1965	 1.9775000000e+002	 1.02602e-002
1966	 1.9781250000e+002	 8.15666e-003
1967	 1.9787500000e+002	 1.77609e-002
1968	 1.9793750000e+002	 4.26954e-002
1969	 1.9800000000e+002	 2.22054e-002
1970	 1.9806250000e+002	 1.29323e-002
1971	 1.9812500000e+002	 1.18907e-002
1972	 1.9818750000e+002	 1.36875e-002
1973	 1.9825000000e+002	 1.28113e-002
1974	 1.9831250000e+002	 1.75596e-002
1975	 1.9837500000e+002	 2.53620e-002
1976	 1.9843750000e+002	 2.29546e-002
1977	 1.9850000000e+002	 7.86305e-003
1978	 1.9856250000e+002	 9.08636e-003
1979	 1.9862500000e+002	 1.21456e-002
1980	 1.9868750000e+002	 9.44996e-003
1981	 1.9875000000e+002	 2.23935e-002
1982	 1.9881250000e+002	 2.94542e-002
1983	 1.9887500000e+002	 2.01612e-002
1984	 1.9893750000e+002	 1.78420e-002
1985	 1.9900000000e+002	 3.63466e-002
1986	 1.9906250000e+002	 3.03254e-002
1987	 1.9912500000e+002	 1.50280e-002
1988	 1.9918750000e+002	 2.51504e-002
1989	 1.9925000000e+002	 3.64560e-002
1990	 1.9931250000e+002	 7.91941e-003
1991	 1.9937500000e+002	 1.33111e-002
1992	 1.9943750000e+002	 2.15433e-002
1993	 1.9950000000e+002	 1.69754e-002
1994	 1.9956250000e+002	 8.31760e-003
1995	 1.9962500000e+002	 1.28595e-002
1996	 1.9968750000e+002	 1.20582e-002
1997	 1.9975000000e+002	 9.75854e-003
1998	 1.9981250000e+002	 1.35276e-002
1999	 1.9987500000e+002	 3.86324e-002
2000	 1.9993750000e+002	 3.26868e-002
2001	 2.0000000000e+002	 1.94049e-002
2002	 2.0006250000e+002	 1.45375e-002
2003	 2.0012500000e+002	 2.05970e-002
2004	 2.0018750000e+002	 3.05122e-002
2005	 2.0025000000e+002	 4.80619e-002
2006	 2.0031250000e+002	 3.98650e-002
2007	 2.0037500000e+002	 2.78497e-002
2008	 2.0043750000e+002	 1.55481e-002
2009	 2.0050000000e+002	 1.59392e-002
2010	 2.0056250000e+002	 2.00012e-002
2011	 2.0062500000e+002	 9.86817e-003
2012	 2.0068750000e+002	 1.61319e-002
2013	 2.0075000000e+002	 1.34210e-002
2014	 2.0081250000e+002	 7.55006e-003
2015	 2.0087500000e+002	 1.25895e-002
2016	 2.0093750000e+002	 1.88193e-002
2017	 2.0100000000e+002	 2.23106e-002
2018	 2.0106250000e+002	 1.76868e-002
2019	 2.0112500000e+002	 1.91724e-002
2020	 2.0118750000e+002	 2.30681e-002
2021	 2.0125000000e+002	 1.91723e-002
2022	 2.0131250000e+002	 9.30153e-003
2023	 2.0137500000e+002	 2.06042e-002
2024	 2.0143750000e+002	 1.43835e-002
2025	 2.0150000000e+002	 8.32183e-003
2026	 2.0156250000e+002	 1.38885e-002
2027	 2.0162500000e+002	 1.88297e-002
2028	 2.0168750000e+002	 5.01435e-002
2029	 2.0175000000e+002	 4.51308e-002
2030	 2.0181250000e+002	 2.63288e-002
2031	 2.0187500000e+002	 3.98279e-002
2032	 2.0193750000e+002	 2.63625e-002
2033	 2.0200000000e+002	 3.95417e-002
2034	 2.0206250000e+002	 3.67221e-002
2035	 2.0212500000e+002	 1.51952e-002
2036	 2.0218750000e+002	 2.16597e-002
2037	 2.0225000000e+002	 1.55758e-002
2038	 2.0231250000e+002	 2.33629e-002
2039	 2.0237500000e+002	 5.52069e-002
2040	 2.0243750000e+002	 4.50889e-002
2041	 2.0250000000e+002	 5.01196e-002
2042	 2.0256250000e+002	 2.86301e-002
2043	 2.0262500000e+002	 4.09340e-002
2044	 2.0268750000e+002	 3.18136e-002
2045	 2.0275000000e+002	 1.14642e-002
2046	 2.0281250000e+002	 2.45783e-002
2047	 2.0287500000e+002	 2.96528e-002
2048	 2.0293750000e+002	 4.23521e-002
2049	 2.0300000000e+002	 5.01623e-002
2050	 2.0306250000e+002	 3.49919e-002
2051	 2.0312500000e+002	 2.28389e-002
2052	 2.0318750000e+002	 2.24089e-002
2053	 2.0325000000e+002	 4.80553e-002
2054	 2.0331250000e+002	 3.91228e-002
2055	 2.0337500000e+002	 1.64739e-002
2056	 2.0343750000e+002	 1.52743e-002
2057	 2.0350000000e+002	 1.90481e-002
2058	 2.0356250000e+002	 4.71602e-002
2059	 2.0362500000e+002	 4.17784e-002
2060	 2.0368750000e+002	 1.63089e-002
2061	 2.0375000000e+002	 9.84779e-003
2062	 2.0381250000e+002	 2.51224e-002
2063	 2.0387500000e+002	 2.21206e-002
2064	 2.0393750000e+002	 1.74838e-002
2065	 2.0400000000e+002	 1.88466e-002
2066	 2.0406250000e+002	 5.17778e-002
2067	 2.0412500000e+002	 6.94343e-002
2068	 2.0418750000e+002	 3.78211e-002
2069	 2.0425000000e+002	 2.96366e-002
2070	 2.0431250000e+002	 2.74418e-002
2071	 2.0437500000e+002	 2.00135e-002
2072	 2.0443750000e+002	 1.90723e-002
2073	 2.0450000000e+002	 2.03598e-002
2074	 2.0456250000e+002	 2.15225e-002
2075	 2.0462500000e+002	 2.67711e-002
2076	 2.0468750000e+002	 3.54149e-002
2077	 2.0475000000e+002	 1.30115e-002
2078	 2.0481250000e+002	 6.15084e-002
2079	 2.0487500000e+002	 8.30199e-002
2080	 2.0493750000e+002	 3.77164e-002
2081	 2.0500000000e+002	 2.06428e-002
2082	 2.0506250000e+002	 2.18562e-002
2083	 2.0512500000e+002	 2.38055e-002
2084	 2.0518750000e+002	 5.63445e-002
2085	 2.0525000000e+002	 1.01247e-001
2086	 2.0531250000e+002	 4.71610e-002
2087	 2.0537500000e+002	 3.85390e-002
2088	 2.0543750000e+002	 4.47884e-002
2089	 2.0550000000e+002	 2.64097e-002
2090	 2.0556250000e+002	 2.83176e-002
2091	 2.0562500000e+002	 4.21485e-002
2092	 2.0568750000e+002	 3.72190e-002
2093	 2.0575000000e+002	 3.51260e-002
2094	 2.0581250000e+002	 3.67350e-002
2095	 2.0587500000e+002	 5.14428e-002
2096	 2.0593750000e+002	 4.29862e-002
2097	 2.0600000000e+002	 4.89344e-002
2098	 2.0606250000e+002	 4.96199e-002
2099	 2.0612500000e+002	 3.16769e-002
2100	 2.0618750000e+002	 3.35878e-002
2101	 2.0625000000e+002	 4.19852e-002
2102	 2.0631250000e+002	 4.11997e-002
2103	 2.0637500000e+002	 3.49015e-002
2104	 2.0643750000e+002	 1.97228e-002
2105	 2.0650000000e+002	 4.28452e-002
2106	 2.0656250000e+002	 2.27825e-002
2107	 2.0662500000e+002	 3.58033e-002
2108	 2.0668750000e+002	 1.75885e-001
2109	 2.0675000000e+002	 1.28566e-001
2110	 2.0681250000e+002	 6.60839e-002
2111	 2.0687500000e+002	 6.35188e-002
2112	 2.0693750000e+002	 4.50316e-002
2113	 2.0700000000e+002	 8.34362e-002
2114	 2.0706250000e+002	 8.76927e-002
2115	 2.0712500000e+002	 2.75884e-002
2116	 2.0718750000e+002	 1.48238e-002
2117	 2.0725000000e+002	 2.64459e-002
2118	 2.0731250000e+002	 5.13556e-002
2119	 2.0737500000e+002	 7.55997e-002
2120	 2.0743750000e+002	 3.67232e-002
2121	 2.0750000000e+002	 2.40792e-002
2122	 2.0756250000e+002	 5.84339e-002
2123	 2.0762500000e+002	 6.50209e-002
2124	 2.0768750000e+002	 2.44137e-002
2125	 2.0775000000e+002	 1.21353e-002
2126	 2.0781250000e+002	 5.39197e-002
2127	 2.0787500000e+002	 1.05906e-001
2128	 2.0793750000e+002	 1.37188e-001
2129	 2.0800000000e+002	 1.61845e-001
2130	 2.0806250000e+002	 6.48465e-002
2131	 2.0812500000e+002	 2.96745e-002
2132	 2.0818750000e+002	 7.06894e-002
2133	 2.0825000000e+002	 1.26914e-001
2134	 2.0831250000e+002	 7.84001e-002
2135	 2.0837500000e+002	 6.31010e-002
2136	 2.0843750000e+002	 5.20527e-002
2137	 2.0850000000e+002	 9.67392e-002
2138	 2.0856250000e+002	 1.24095e-001
2139	 2.0862500000e+002	 8.51677e-002
2140	 2.0868750000e+002	 1.03290e-001
2141	 2.0875000000e+002	 1.03875e-001
2142	 2.0881250000e+002	 8.17615e-002
2143	 2.0887500000e+002	 8.61315e-002
2144	 2.0893750000e+002	 6.14599e-002
2145	 2.0900000000e+002	 3.77312e-002
2146	 2.0906250000e+002	 9.04548e-002
2147	 2.0912500000e+002	 1.43126e-001
2148	 2.0918750000e+002	 2.26373e-001
2149	 2.0925000000e+002	 2.02370e-001
2150	 2.0931250000e+002	 3.49134e-002
2151	 2.0937500000e+002	 7.53456e-002
2152	 2.0943750000e+002	 1.23724e-001
2153	 2.0950000000e+002	 1.00354e-001
2154	 2.0956250000e+002	 1.49432e-001
2155	 2.0962500000e+002	 9.29788e-002
2156	 2.0968750000e+002	 1.49493e-001
2157	 2.0975000000e+002	 1.07056e-001
2158	 2.0981250000e+002	 7.13065e-002
2159	 2.0987500000e+002	 5.24094e-002
2160	 2.0993750000e+002	 7.04259e-002
2161	 2.1000000000e+002	 1.36803e-001
2162	 2.1006250000e+002	 1.08880e-001
2163	 2.1012500000e+002	 3.63926e-002
2164	 2.1018750000e+002	 9.53669e-002
2165	 2.1025000000e+002	 1.56389e-001
2166	 2.1031250000e+002	 1.67824e-001
2167	 2.1037500000e+002	 1.23820e-001
2168	 2.1043750000e+002	 5.62772e-002
2169	 2.1050000000e+002	 8.64686e-002
2170	 2.1056250000e+002	 1.84314e-001
2171	 2.1062500000e+002	 1.33356e-001
2172	 2.1068750000e+002	 1.94096e-001
2173	 2.1075000000e+002	 1.96530e-001
2174	 2.1081250000e+002	 9.61035e-002
2175	 2.1087500000e+002	 2.31292e-001
2176	 2.1093750000e+002	 3.89294e-001
2177	 2.1100000000e+002	 3.07248e-001
2178	 2.1106250000e+002	 1.29095e-001
2179	 2.1112500000e+002	 7.92340e-002
2180	 2.1118750000e+002	 1.24149e-001
2181	 2.1125000000e+002	 1.27840e-001
2182	 2.1131250000e+002	 1.29019e-001
2183	 2.1137500000e+002	 1.75627e-001
2184	 2.1143750000e+002	 2.61227e-001
2185	 2.1150000000e+002	 2.45858e-001
2186	 2.1156250000e+002	 4.55746e-001
2187	 2.1162500000e+002	 4.10966e-001
2188	 2.1168750000e+002	 4.46134e-001
2189	 2.1175000000e+002	 2.77757e-001
2190	 2.1181250000e+002	 2.96454e-001
2191	 2.1187500000e+002	 3.04039e-001
2192	 2.1193750000e+002	 1.61821e-001
2193	 2.1200000000e+002	 1.89506e-001
2194	 2.1206250000e+002	 3.91011e-001
2195	 2.1212500000e+002	 3.44294e-001
2196	 2.1218750000e+002	 1.05373e-001
2197	 2.1225000000e+002	 7.85924e-002
2198	 2.1231250000e+002	 2.02274e-001
2199	 2.1237500000e+002	 2.47984e-001
2200	 2.1243750000e+002	 1.72436e-001
2201	 2.1250000000e+002	 1.96477e-001
2202	 2.1256250000e+002	 2.50147e-001
2203	 2.1262500000e+002	 4.38156e-001
2204	 2.1268750000e+002	 8.45285e-001
2205	 2.1275000000e+002	 4.55746e-001
2206	 2.1281250000e+002	 1.47223e-001
2207	 2.1287500000e+002	 2.09105e-001
2208	 2.1293750000e+002	 1.68046e-001
2209	 2.1300000000e+002	 3.98388e-001
2210	 2.1306250000e+002	 5.47119e-001
2211	 2.1312500000e+002	 2.80807e-001
2212	 2.1318750000e+002	 2.59841e-001
2213	 2.1325000000e+002	 3.34817e-001
2214	 2.1331250000e+002	 5.44984e-001
2215	 2.1337500000e+002	 5.75989e-001
2216	 2.1343750000e+002	 5.73861e-001
2217	 2.1350000000e+002	 4.61700e-001
2218	 2.1356250000e+002	 4.20704e-001
2219	 2.1362500000e+002	 7.86285e-001
2220	 2.1368750000e+002	 5.11153e-001
2221	 2.1375000000e+002	 2.27022e-001
2222	 2.1381250000e+002	 4.04341e-001
2223	 2.1387500000e+002	 4.77100e-001
2224	 2.1393750000e+002	 3.13474e-001
2225	 2.1400000000e+002	 1.67732e-001
2226	 2.1406250000e+002	 3.11345e-001
2227	 2.1412500000e+002	 4.69928e-001
2228	 2.1418750000e+002	 4.02413e-001
2229	 2.1425000000e+002	 9.17937e-001
2230	 2.1431250000e+002	 8.91328e-001
2231	 2.1437500000e+002	 4.43642e-001
2232	 2.1443750000e+002	 7.43316e-001
2233	 2.1450000000e+002	 5.91490e-001
2234	 2.1456250000e+002	 1.69153e-001
2235	 2.1462500000e+002	 4.19655e-001
2236	 2.1468750000e+002	 7.83121e-001
2237	 2.1475000000e+002	 2.95404e-001
2238	 2.1481250000e+002	 1.07389e-001
2239	 2.1487500000e+002	 1.25499e-001
2240	 2.1493750000e+002	 5.56746e-001
2241	 2.1500000000e+002	 5.34754e-001
2242	 2.1506250000e+002	 4.35687e-001
2243	 2.1512500000e+002	 2.53218e-001
2244	 2.1518750000e+002	 3.69060e-001
2245	 2.1525000000e+002	 2.62532e-001
2246	 2.1531250000e+002	 4.49407e-001
2247	 2.1537500000e+002	 2.97053e-001
2248	 2.1543750000e+002	 2.76934e-001
2249	 2.1550000000e+002	 1.52990e-001
2250	 2.1556250000e+002	 2.31129e-001
2251	 2.1562500000e+002	 3.09162e-001
2252	 2.1568750000e+002	 3.91071e-001
2253	 2.1575000000e+002	 2.54723e-001
2254	 2.1581250000e+002	 1.43801e-001
2255	 2.1587500000e+002	 3.31920e-001
2256	 2.1593750000e+002	 1.91754e-001
2257	 2.1600000000e+002	 2.35606e-001
2258	 2.1606250000e+002	 3.80856e-001
2259	 2.1612500000e+002	 3.17514e-001
2260	 2.1618750000e+002	 1.49659e-001
2261	 2.1625000000e+002	 2.59916e-001
2262	 2.1631250000e+002	 2.29819e-001
2263	 2.1637500000e+002	 4.81886e-001
2264	 2.1643750000e+002	 8.00313e-001
2265	 2.1650000000e+002	 3.20373e-001
2266	 2.1656250000e+002	 1.79504e-001
2267	 2.1662500000e+002	 1.09667e-001
2268	 2.1668750000e+002	 1.29768e-001
2269	 2.1675000000e+002	 2.33340e-001
2270	 2.1681250000e+002	 2.26271e-001
2271	 2.1687500000e+002	 2.27822e-001
2272	 2.1693750000e+002	 2.47666e-001
2273	 2.1700000000e+002	 4.01116e-001
2274	 2.1706250000e+002	 3.96288e-001
2275	 2.1712500000e+002	 1.29193e-001
2276	 2.1718750000e+002	 6.02340e-002
2277	 2.1725000000e+002	 1.31115e-001
2278	 2.1731250000e+002	 2.01511e-001
2279	 2.1737500000e+002	 1.64893e-001
2280	 2.1743750000e+002	 2.63690e-001
2281	 2.1750000000e+002	 2.10283e-001
2282	 2.1756250000e+002	 1.36880e-001
2283	 2.1762500000e+002	 1.62786e-001
2284	 2.1768750000e+002	 8.71199e-002
2285	 2.1775000000e+002	 1.86075e-001
2286	 2.1781250000e+002	 1.53167e-001
2287	 2.1787500000e+002	 4.81533e-002
2288	 2.1793750000e+002	 1.26703e-001
2289	 2.1800000000e+002	 2.18132e-001
2290	 2.1806250000e+002	 1.72295e-001
2291	 2.1812500000e+002	 1.55495e-001
2292	 2.1818750000e+002	 9.76546e-002
2293	 2.1825000000e+002	 1.51797e-001
2294	 2.1831250000e+002	 1.56617e-001
2295	 2.1837500000e+002	 1.71869e-001
2296	 2.1843750000e+002	 1.03371e-001
2297	 2.1850000000e+002	 8.07042e-002
2298	 2.1856250000e+002	 5.27632e-002
2299	 2.1862500000e+002	 5.21153e-002
2300	 2.1868750000e+002	 1.33181e-001
2301	 2.1875000000e+002	 1.30614e-001
2302	 2.1881250000e+002	 1.12684e-001
2303	 2.1887500000e+002	 5.26752e-002
2304	 2.1893750000e+002	 1.02895e-001
2305	 2.1900000000e+002	 1.34304e-001
2306	 2.1906250000e+002	 1.26711e-001
2307	 2.1912500000e+002	 8.01002e-002
2308	 2.1918750000e+002	 8.62364e-002
2309	 2.1925000000e+002	 1.42688e-001
2310	 2.1931250000e+002	 7.98403e-002
2311	 2.1937500000e+002	 1.50835e-001
2312	 2.1943750000e+002	 1.23308e-001
2313	 2.1950000000e+002	 5.50913e-002
2314	 2.1956250000e+002	 6.44360e-002
2315	 2.1962500000e+002	 7.71100e-002
2316	 2.1968750000e+002	 1.03196e-001
2317	 2.1975000000e+002	 6.67459e-002
2318	 2.1981250000e+002	 9.91212e-002
2319	 2.1987500000e+002	 4.24513e-002
2320	 2.1993750000e+002	 6.57403e-002
2321	 2.2000000000e+002	 6.24746e-002
2322	 2.2006250000e+002	 5.75875e-002
2323	 2.2012500000e+002	 9.79698e-002
2324	 2.2018750000e+002	 1.28425e-001
2325	 2.2025000000e+002	 7.29706e-002
2326	 2.2031250000e+002	 6.42437e-002
2327	 2.2037500000e+002	 8.59003e-002
2328	 2.2043750000e+002	 1.06345e-001
2329	 2.2050000000e+002	 5.86347e-002
2330	 2.2056250000e+002	 5.01376e-002
2331	 2.2062500000e+002	 5.00269e-002
2332	 2.2068750000e+002	 7.14750e-002
2333	 2.2075000000e+002	 6.34913e-002
2334	 2.2081250000e+002	 9.88436e-002
2335	 2.2087500000e+002	 1.92231e-001
2336	 2.2093750000e+002	 1.22227e-001
2337	 2.2100000000e+002	 9.22193e-002
2338	 2.2106250000e+002	 2.06449e-001
2339	 2.2112500000e+002	 1.13209e-001
2340	 2.2118750000e+002	 2.21592e-002
2341	 2.2125000000e+002	 2.07285e-002
2342	 2.2131250000e+002	 4.38422e-002
2343	 2.2137500000e+002	 4.38819e-002
2344	 2.2143750000e+002	 3.72464e-002
2345	 2.2150000000e+002	 3.53934e-002
2346	 2.2156250000e+002	 2.61743e-002
2347	 2.2162500000e+002	 2.59427e-002
2348	 2.2168750000e+002	 8.60631e-002
2349	 2.2175000000e+002	 4.86470e-002
2350	 2.2181250000e+002	 4.67114e-002
2351	 2.2187500000e+002	 4.89797e-002
2352	 2.2193750000e+002	 3.28443e-002
2353	 2.2200000000e+002	 4.04985e-002
2354	 2.2206250000e+002	 2.13013e-002
2355	 2.2212500000e+002	 5.20027e-002
2356	 2.2218750000e+002	 7.92779e-002
2357	 2.2225000000e+002	 2.79449e-002
2358	 2.2231250000e+002	 2.61243e-002
2359	 2.2237500000e+002	 2.95428e-002
2360	 2.2243750000e+002	 2.52190e-002
2361	 2.2250000000e+002	 3.14772e-002
2362	 2.2256250000e+002	 3.05449e-002
2363	 2.2262500000e+002	 4.00717e-002
2364	 2.2268750000e+002	 4.09796e-002
2365	 2.2275000000e+002	 2.82178e-002
2366	 2.2281250000e+002	 1.26746e-002
2367	 2.2287500000e+002	 2.75931e-002
2368	 2.2293750000e+002	 4.18943e-002
2369	 2.2300000000e+002	 2.21386e-002
2370	 2.2306250000e+002	 1.19933e-002
2371	 2.2312500000e+002	 2.73608e-002
2372	 2.2318750000e+002	 6.43096e-002
2373	 2.2325000000e+002	 6.17261e-002
2374	 2.2331250000e+002	 4.80124e-002
2375	 2.2337500000e+002	 4.92282e-002
2376	 2.2343750000e+002	 2.81600e-002
2377	 2.2350000000e+002	 4.99394e-002
2378	 2.2356250000e+002	 4.43554e-002
2379	 2.2362500000e+002	 3.87325e-002
2380	 2.2368750000e+002	 5.23865e-002
2381	 2.2375000000e+002	 3.15468e-002
2382	 2.2381250000e+002	 9.99772e-003
2383	 2.2387500000e+002	 1.98283e-002
2384	 2.2393750000e+002	 4.65353e-002
2385	 2.2400000000e+002	 3.46593e-002
2386	 2.2406250000e+002	 2.85271e-002
2387	 2.2412500000e+002	 3.23458e-002
2388	 2.2418750000e+002	 6.51244e-002
2389	 2.2425000000e+002	 3.28196e-002
2390	 2.2431250000e+002	 1.20939e-002
2391	 2.2437500000e+002	 1.34862e-002
2392	 2.2443750000e+002	 1.55929e-002
2393	 2.2450000000e+002	 2.36158e-002
2394	 2.2456250000e+002	 2.27502e-002
2395	 2.2462500000e+002	 3.61570e-002
2396	 2.2468750000e+002	 4.35708e-002
2397	 2.2475000000e+002	 4.60641e-002
2398	 2.2481250000e+002	 9.01300e-002
2399	 2.2487500000e+002	 7.10868e-002
2400	 2.2493750000e+002	 1.73105e-002
2401	 2.2500000000e+002	 9.26027e-003
2402	 2.2506250000e+002	 1.91729e-002
2403	 2.2512500000e+002	 2.71206e-002
2404	 2.2518750000e+002	 1.70868e-002
2405	 2.2525000000e+002	 4.19353e-002
2406	 2.2531250000e+002	 2.87485e-002
2407	 2.2537500000e+002	 1.00757e-002
2408	 2.2543750000e+002	 1.10805e-002
2409	 2.2550000000e+002	 2.03605e-002
2410	 2.2556250000e+002	 2.65870e-002
2411	 2.2562500000e+002	 2.67844e-002
2412	 2.2568750000e+002	 3.63030e-002
2413	 2.2575000000e+002	 3.73749e-002
2414	 2.2581250000e+002	 3.25873e-002
2415	 2.2587500000e+002	 2.13485e-002
2416	 2.2593750000e+002	 2.90664e-002
2417	 2.2600000000e+002	 1.45312e-002
2418	 2.2606250000e+002	 2.27975e-002
2419	 2.2612500000e+002	 3.52815e-002
2420	 2.2618750000e+002	 2.10692e-002
2421	 2.2625000000e+002	 2.23115e-002
2422	 2.2631250000e+002	 3.41690e-002
2423	 2.2637500000e+002	 2.81761e-002
2424	 2.2643750000e+002	 3.18522e-002
2425	 2.2650000000e+002	 1.50185e-002
2426	 2.2656250000e+002	 2.93757e-002
2427	 2.2662500000e+002	 1.97384e-002
2428	 2.2668750000e+002	 5.19740e-003
2429	 2.2675000000e+002	 2.94868e-003
2430	 2.2681250000e+002	 6.40602e-003
2431	 2.2687500000e+002	 1.51884e-002
2432	 2.2693750000e+002	 2.88182e-002
2433	 2.2700000000e+002	 1.81244e-002
2434	 2.2706250000e+002	 1.15548e-002
2435	 2.2712500000e+002	 8.04457e-003
2436	 2.2718750000e+002	 1.35532e-002
2437	 2.2725000000e+002	 1.24438e-002
2438	 2.2731250000e+002	 1.26802e-002
2439	 2.2737500000e+002	 1.56546e-002
2440	 2.2743750000e+002	 2.17593e-002
2441	 2.2750000000e+002	 2.38493e-002
2442	 2.2756250000e+002	 1.61544e-002
2443	 2.2762500000e+002	 1.22193e-002
2444	 2.2768750000e+002	 3.62564e-002
2445	 2.2775000000e+002	 2.24590e-002
2446	 2.2781250000e+002	 1.38115e-002
2447	 2.2787500000e+002	 2.77373e-002
2448	 2.2793750000e+002	 3.24824e-002
2449	 2.2800000000e+002	 2.49898e-002
2450	 2.2806250000e+002	 1.22370e-002
2451	 2.2812500000e+002	 1.25651e-002
2452	 2.2818750000e+002	 1.99731e-002
2453	 2.2825000000e+002	 1.19204e-002
2454	 2.2831250000e+002	 1.64797e-002
2455	 2.2837500000e+002	 1.87064e-002
2456	 2.2843750000e+002	 2.36752e-002
2457	 2.2850000000e+002	 1.48853e-002
2458	 2.2856250000e+002	 6.15465e-003
2459	 2.2862500000e+002	 9.49852e-003
2460	 2.2868750000e+002	 7.05350e-003
2461	 2.2875000000e+002	 1.74873e-002
2462	 2.2881250000e+002	 2.10482e-002
2463	 2.2887500000e+002	 3.13374e-002
2464	 2.2893750000e+002	 2.28733e-002
2465	 2.2900000000e+002	 1.74653e-002
2466	 2.2906250000e+002	 7.68944e-003
2467	 2.2912500000e+002	 8.77494e-003
2468	 2.2918750000e+002	 1.20440e-002
2469	 2.2925000000e+002	 1.84597e-002
2470	 2.2931250000e+002	 1.35445e-002
2471	 2.2937500000e+002	 1.31469e-002
2472	 2.2943750000e+002	 1.59731e-002
2473	 2.2950000000e+002	 1.10472e-002
2474	 2.2956250000e+002	 9.10358e-003
2475	 2.2962500000e+002	 1.20623e-002
2476	 2.2968750000e+002	 6.97816e-003
2477	 2.2975000000e+002	 5.08939e-003
2478	 2.2981250000e+002	 4.66223e-003
2479	 2.2987500000e+002	 9.32870e-003
2480	 2.2993750000e+002	 2.10292e-002
2481	 2.3000000000e+002	 1.59529e-002
2482	 2.3006250000e+002	 1.84354e-002
2483	 2.3012500000e+002	 2.19075e-002
2484	 2.3018750000e+002	 2.62792e-002
2485	 2.3025000000e+002	 1.93872e-002
2486	 2.3031250000e+002	 1.13717e-002
2487	 2.3037500000e+002	 4.89910e-003
2488	 2.3043750000e+002	 1.19273e-002
2489	 2.3050000000e+002	 8.51895e-003
2490	 2.3056250000e+002	 3.24853e-003
2491	 2.3062500000e+002	 4.37418e-003
2492	 2.3068750000e+002	 7.24290e-003
2493	 2.3075000000e+002	 5.07140e-003
2494	 2.3081250000e+002	 5.34639e-003
2495	 2.3087500000e+002	 4.45714e-003
2496	 2.3093750000e+002	 5.79339e-003
2497	 2.3100000000e+002	 1.18772e-002
2498	 2.3106250000e+002	 9.68294e-003
2499	 2.3112500000e+002	 9.03770e-003
2500	 2.3118750000e+002	 6.74096e-003
2501	 2.3125000000e+002	 6.84986e-003
2502	 2.3131250000e+002	 7.39845e-003
2503	 2.3137500000e+002	 9.18804e-003
2504	 2.3143750000e+002	 2.30678e-002
2505	 2.3150000000e+002	 2.87995e-002
2506	 2.3156250000e+002	 1.52230e-002
2507	 2.3162500000e+002	 1.75269e-002
2508	 2.3168750000e+002	 2.53720e-002
2509	 2.3175000000e+002	 1.97537e-002
2510	 2.3181250000e+002	 8.17441e-003
2511	 2.3187500000e+002	 1.44376e-002
2512	 2.3193750000e+002	 1.06993e-002
2513	 2.3200000000e+002	 3.40360e-003
2514	 2.3206250000e+002	 4.66679e-003
2515	 2.3212500000e+002	 5.09394e-003
2516	 2.3218750000e+002	 7.96441e-003
2517	 2.3225000000e+002	 1.97959e-002
2518	 2.3231250000e+002	 2.05356e-002
2519	 2.3237500000e+002	 1.47741e-002
2520	 2.3243750000e+002	 1.03553e-002
2521	 2.3250000000e+002	 1.20979e-002
2522	 2.3256250000e+002	 1.13117e-002
2523	 2.3262500000e+002	 8.58029e-003
2524	 2.3268750000e+002	 8.52747e-003
2525	 2.3275000000e+002	 4.14968e-003
2526	 2.3281250000e+002	 3.13077e-003
2527	 2.3287500000e+002	 5.38855e-003
2528	 2.3293750000e+002	 1.08581e-002
2529	 2.3300000000e+002	 9.82442e-003
2530	 2.3306250000e+002	 3.62751e-003
2531	 2.3312500000e+002	 3.37244e-003
2532	 2.3318750000e+002	 5.04731e-003
2533	 2.3325000000e+002	 6.62819e-003
2534	 2.3331250000e+002	 1.42943e-002
2535	 2.3337500000e+002	 5.45572e-003
2536	 2.3343750000e+002	 1.34340e-002
2537	 2.3350000000e+002	 2.57998e-002
2538	 2.3356250000e+002	 1.71756e-002
2539	 2.3362500000e+002	 7.85943e-003
2540	 2.3368750000e+002	 3.63752e-003
2541	 2.3375000000e+002	 4.90463e-003
2542	 2.3381250000e+002	 7.72143e-003
2543	 2.3387500000e+002	 6.84404e-003
2544	 2.3393750000e+002	 5.55993e-003
2545	 2.3400000000e+002	 7.67326e-003
2546	 2.3406250000e+002	 6.42255e-003
2547	 2.3412500000e+002	 6.65112e-003
2548	 2.3418750000e+002	 6.26620e-003
2549	 2.3425000000e+002	 7.35629e-003
2550	 2.3431250000e+002	 3.85762e-003
2551	 2.3437500000e+002	 6.07012e-003
2552	 2.3443750000e+002	 1.01240e-002
2553	 2.3450000000e+002	 9.90661e-003
2554	 2.3456250000e+002	 7.69566e-003
2555	 2.3462500000e+002	 1.25219e-002
2556	 2.3468750000e+002	 1.30886e-002
2557	 2.3475000000e+002	 7.00958e-003
2558	 2.3481250000e+002	 9.09108e-003
2559	 2.3487500000e+002	 7.01612e-003
2560	 2.3493750000e+002	 1.76024e-002
2561	 2.3500000000e+002	 8.07276e-003
2562	 2.3506250000e+002	 6.16385e-003
2563	 2.3512500000e+002	 7.88719e-003
2564	 2.3518750000e+002	 6.80736e-003
2565	 2.3525000000e+002	 6.40818e-003
2566	 2.3531250000e+002	 1.16252e-002
2567	 2.3537500000e+002	 7.69156e-003
2568	 2.3543750000e+002	 8.30070e-003
2569	 2.3550000000e+002	 1.86973e-002
2570	 2.3556250000e+002	 1.20587e-002
2571	 2.3562500000e+002	 7.60333e-003
2572	 2.3568750000e+002	 4.44047e-003
2573	 2.3575000000e+002	 9.49774e-003
2574	 2.3581250000e+002	 1.82909e-002
2575	 2.3587500000e+002	 1.31808e-002
2576	 2.3593750000e+002	 6.39133e-003
2577	 2.3600000000e+002	 3.42717e-003
2578	 2.3606250000e+002	 3.56018e-003
2579	 2.3612500000e+002	 7.45161e-003
2580	 2.3618750000e+002	 1.48512e-002
2581	 2.3625000000e+002	 7.46177e-003
2582	 2.3631250000e+002	 3.97147e-003
2583	 2.3637500000e+002	 9.29966e-003
2584	 2.3643750000e+002	 1.32891e-002
2585	 2.3650000000e+002	 8.37854e-003
2586	 2.3656250000e+002	 1.15271e-002
2587	 2.3662500000e+002	 5.64921e-003
2588	 2.3668750000e+002	 5.97013e-003
2589	 2.3675000000e+002	 7.52481e-003
2590	 2.3681250000e+002	 6.57981e-003
2591	 2.3687500000e+002	 5.90346e-003
2592	 2.3693750000e+002	 1.14360e-002
2593	 2.3700000000e+002	 1.95256e-002
2594	 2.3706250000e+002	 1.24734e-002
2595	 2.3712500000e+002	 4.99695e-003
2596	 2.3718750000e+002	 9.36388e-003
2597	 2.3725000000e+002	 7.23549e-003
2598	 2.3731250000e+002	 3.78172e-003
2599	 2.3737500000e+002	 1.04966e-002
2600	 2.3743750000e+002	 1.11900e-002
2601	 2.3750000000e+002	 5.61400e-003
2602	 2.3756250000e+002	 2.71770e-003
2603	 2.3762500000e+002	 7.09114e-003
2604	 2.3768750000e+002	 1.15298e-002
2605	 2.3775000000e+002	 1.08448e-002
2606	 2.3781250000e+002	 1.39849e-002
2607	 2.3787500000e+002	 2.34265e-002
2608	 2.3793750000e+002	 1.01325e-002
2609	 2.3800000000e+002	 5.22133e-003
2610	 2.3806250000e+002	 6.38023e-003
2611	 2.3812500000e+002	 1.12898e-002
2612	 2.3818750000e+002	 1.04687e-002
2613	 2.3825000000e+002	 1.01043e-002
2614	 2.3831250000e+002	 6.09038e-003
2615	 2.3837500000e+002	 4.46793e-003
2616	 2.3843750000e+002	 2.87439e-003
2617	 2.3850000000e+002	 4.36327e-003
2618	 2.3856250000e+002	 4.02161e-003
2619	 2.3862500000e+002	 6.42663e-003
2620	 2.3868750000e+002	 1.00921e-002
2621	 2.3875000000e+002	 1.00559e-002
2622	 2.3881250000e+002	 1.27909e-002
2623	 2.3887500000e+002	 6.78230e-003
2624	 2.3893750000e+002	 1.08444e-002
2625	 2.3900000000e+002	 9.06636e-003
2626	 2.3906250000e+002	 1.03342e-002
2627	 2.3912500000e+002	 8.98454e-003
2628	 2.3918750000e+002	 8.23204e-003
2629	 2.3925000000e+002	 5.26414e-003
2630	 2.3931250000e+002	 1.92371e-003
2631	 2.3937500000e+002	 4.73091e-003
2632	 2.3943750000e+002	 1.21399e-002
2633	 2.3950000000e+002	 1.15704e-002
2634	 2.3956250000e+002	 6.37478e-003
2635	 2.3962500000e+002	 6.99963e-003
2636	 2.3968750000e+002	 5.60471e-003
2637	 2.3975000000e+002	 7.01858e-003
2638	 2.3981250000e+002	 1.43743e-002
2639	 2.3987500000e+002	 1.09195e-002
2640	 2.3993750000e+002	 1.91122e-002
2641	 2.4000000000e+002	 1.80540e-002
2642	 2.4006250000e+002	 4.63476e-003
2643	 2.4012500000e+002	 1.10222e-002
2644	 2.4018750000e+002	 1.08484e-002
2645	 2.4025000000e+002	 3.12284e-003
2646	 2.4031250000e+002	 3.50748e-003
2647	 2.4037500000e+002	 5.38755e-003
2648	 2.4043750000e+002	 5.35789e-003
2649	 2.4050000000e+002	 5.14488e-003
2650	 2.4056250000e+002	 1.00914e-002
2651	 2.4062500000e+002	 7.02379e-003
2652	 2.4068750000e+002	 3.54904e-003
2653	 2.4075000000e+002	 1.11021e-002
2654	 2.4081250000e+002	 1.02985e-002
2655	 2.4087500000e+002	 1.27913e-002
2656	 2.4093750000e+002	 1.59136e-002
2657	 2.4100000000e+002	 1.40673e-002
2658	 2.4106250000e+002	 1.05348e-002
2659	 2.4112500000e+002	 5.80114e-003
2660	 2.4118750000e+002	 6.81381e-003
2661	 2.4125000000e+002	 5.64297e-003
2662	 2.4131250000e+002	 7.53411e-003
2663	 2.4137500000e+002	 1.44137e-002
2664	 2.4143750000e+002	 1.30852e-002
2665	 2.4150000000e+002	 1.58663e-002
2666	 2.4156250000e+002	 7.85346e-003
2667	 2.4162500000e+002	 3.22552e-003
2668	 2.4168750000e+002	 8.56653e-003
2669	 2.4175000000e+002	 1.13133e-002
2670	 2.4181250000e+002	 4.88132e-003
2671	 2.4187500000e+002	 1.09273e-002
2672	 2.4193750000e+002	 9.92685e-003
2673	 2.4200000000e+002	 6.09132e-003
2674	 2.4206250000e+002	 8.57422e-003
2675	 2.4212500000e+002	 9.50668e-003
2676	 2.4218750000e+002	 7.42683e-003
2677	 2.4225000000e+002	 3.47447e-003
2678	 2.4231250000e+002	 3.34787e-003
2679	 2.4237500000e+002	 9.24007e-003
2680	 2.4243750000e+002	 1.22706e-002
2681	 2.4250000000e+002	 4.73764e-003
2682	 2.4256250000e+002	 6.46910e-003
2683	 2.4262500000e+002	 8.86532e-003
2684	 2.4268750000e+002	 7.01545e-003
2685	 2.4275000000e+002	 3.42968e-003
2686	 2.4281250000e+002	 4.62016e-003
2687	 2.4287500000e+002	 4.35117e-003
2688	 2.4293750000e+002	 3.64331e-003
2689	 2.4300000000e+002	 8.69685e-003
2690	 2.4306250000e+002	 1.41649e-002
2691	 2.4312500000e+002	 1.34009e-002
2692	 2.4318750000e+002	 7.91581e-003
2693	 2.4325000000e+002	 7.24066e-003
2694	 2.4331250000e+002	 4.66275e-003
2695	 2.4337500000e+002	 9.06622e-003
2696	 2.4343750000e+002	 1.40978e-002
2697	 2.4350000000e+002	 7.87998e-003
2698	 2.4356250000e+002	 9.64006e-003
2699	 2.4362500000e+002	 8.85751e-003
2700	 2.4368750000e+002	 9.52318e-003
2701	 2.4375000000e+002	 9.02689e-003
2702	 2.4381250000e+002	 6.34583e-003
2703	 2.4387500000e+002	 6.50752e-003
2704	 2.4393750000e+002	 5.66808e-003
2705	 2.4400000000e+002	 3.75982e-003
2706	 2.4406250000e+002	 7.02019e-003
2707	 2.4412500000e+002	 1.06920e-002
2708	 2.4418750000e+002	 6.62751e-003
2709	 2.4425000000e+002	 5.20290e-003
2710	 2.4431250000e+002	 7.70712e-003
2711	 2.4437500000e+002	 9.77638e-003
2712	 2.4443750000e+002	 1.09842e-002
2713	 2.4450000000e+002	 1.05002e-002
2714	 2.4456250000e+002	 7.32664e-003
2715	 2.4462500000e+002	 6.22443e-003
2716	 2.4468750000e+002	 8.25719e-003
2717	 2.4475000000e+002	 1.11966e-002
2718	 2.4481250000e+002	 1.04080e-002
2719	 2.4487500000e+002	 9.22740e-003
2720	 2.4493750000e+002	 1.80769e-002
2721	 2.4500000000e+002	 1.30472e-002
2722	 2.4506250000e+002	 4.73897e-003
2723	 2.4512500000e+002	 7.23321e-003
2724	 2.4518750000e+002	 1.45587e-002
2725	 2.4525000000e+002	 5.86411e-003
2726	 2.4531250000e+002	 6.32936e-003
2727	 2.4537500000e+002	 1.02140e-002
2728	 2.4543750000e+002	 9.56686e-003
2729	 2.4550000000e+002	 1.52048e-002
2730	 2.4556250000e+002	 7.28322e-003
2731	 2.4562500000e+002	 6.12932e-003
2732	 2.4568750000e+002	 1.49514e-002
2733	 2.4575000000e+002	 1.71388e-002
2734	 2.4581250000e+002	 1.15036e-002
2735	 2.4587500000e+002	 8.22204e-003
2736	 2.4593750000e+002	 9.26087e-003
2737	 2.4600000000e+002	 6.29385e-003
2738	 2.4606250000e+002	 6.72676e-003
2739	 2.4612500000e+002	 4.79162e-003
2740	 2.4618750000e+002	 7.73677e-003
2741	 2.4625000000e+002	 1.02914e-002
2742	 2.4631250000e+002	 1.18360e-002
2743	 2.4637500000e+002	 1.16475e-002
2744	 2.4643750000e+002	 6.46888e-003
2745	 2.4650000000e+002	 7.05219e-003
2746	 2.4656250000e+002	 1.15268e-002
2747	 2.4662500000e+002	 1.60306e-002
2748	 2.4668750000e+002	 8.95454e-003
2749	 2.4675000000e+002	 1.12768e-002
2750	 2.4681250000e+002	 9.99235e-003
2751	 2.4687500000e+002	 1.36043e-002
2752	 2.4693750000e+002	 1.05988e-002
2753	 2.4700000000e+002	 1.27711e-002
2754	 2.4706250000e+002	 1.45914e-002
2755	 2.4712500000e+002	 1.02271e-002
2756	 2.4718750000e+002	 4.92130e-003
2757	 2.4725000000e+002	 5.11147e-003
2758	 2.4731250000e+002	 8.84873e-003
2759	 2.4737500000e+002	 8.81244e-003
2760	 2.4743750000e+002	 8.25644e-003
2761	 2.4750000000e+002	 9.27225e-003
2762	 2.4756250000e+002	 8.37232e-003
2763	 2.4762500000e+002	 9.84888e-003
2764	 2.4768750000e+002	 7.12231e-003
2765	 2.4775000000e+002	 7.07699e-003
2766	 2.4781250000e+002	 8.96454e-003
2767	 2.4787500000e+002	 7.28930e-003
2768	 2.4793750000e+002	 4.82613e-003
2769	 2.4800000000e+002	 4.74462e-003
2770	 2.4806250000e+002	 6.33671e-003
2771	 2.4812500000e+002	 6.59542e-003
2772	 2.4818750000e+002	 4.55608e-003
2773	 2.4825000000e+002	 3.90727e-003
2774	 2.4831250000e+002	 5.63568e-003
2775	 2.4837500000e+002	 7.28552e-003
2776	 2.4843750000e+002	 5.45021e-003
2777	 2.4850000000e+002	 4.02086e-003
2778	 2.4856250000e+002	 9.05397e-003
2779	 2.4862500000e+002	 9.92168e-003
2780	 2.4868750000e+002	 1.22563e-002
2781	 2.4875000000e+002	 1.49611e-002
2782	 2.4881250000e+002	 6.43851e-003
2783	 2.4887500000e+002	 5.87765e-003
2784	 2.4893750000e+002	 6.68413e-003
2785	 2.4900000000e+002	 7.38294e-003
2786	 2.4906250000e+002	 2.09355e-002
2787	 2.4912500000e+002	 1.72688e-002
2788	 2.4918750000e+002	 3.89112e-003
2789	 2.4925000000e+002	 3.10389e-003
2790	 2.4931250000e+002	 5.01878e-003
2791	 2.4937500000e+002	 7.11833e-003
2792	 2.4943750000e+002	 6.82844e-003
2793	 2.4950000000e+002	 9.91250e-003
2794	 2.4956250000e+002	 5.33916e-003
2795	 2.4962500000e+002	 2.79797e-003
2796	 2.4968750000e+002	 3.33554e-003
2797	 2.4975000000e+002	 6.24022e-003
2798	 2.4981250000e+002	 9.56749e-003
2799	 2.4987500000e+002	 6.60431e-003
2800	 2.4993750000e+002	 1.06698e-002
2801	 2.5000000000e+002	 1.55588e-002
2802	 2.5006250000e+002	 1.49329e-002
2803	 2.5012500000e+002	 8.06440e-003
2804	 2.5018750000e+002	 7.23866e-003
2805	 2.5025000000e+002	 5.22299e-003
2806	 2.5031250000e+002	 8.61933e-003
2807	 2.5037500000e+002	 9.95534e-003
2808	 2.5043750000e+002	 1.38868e-002
2809	 2.5050000000e+002	 1.04560e-002
2810	 2.5056250000e+002	 2.07369e-002
2811	 2.5062500000e+002	 8.56983e-003
2812	 2.5068750000e+002	 1.03245e-002
2813	 2.5075000000e+002	 9.75818e-003
2814	 2.5081250000e+002	 6.97381e-003
2815	 2.5087500000e+002	 5.13045e-003
2816	 2.5093750000e+002	 5.08203e-003
2817	 2.5100000000e+002	 6.26048e-003
2818	 2.5106250000e+002	 1.22821e-002
2819	 2.5112500000e+002	 1.32802e-002
2820	 2.5118750000e+002	 9.66088e-003
2821	 2.5125000000e+002	 8.45966e-003
2822	 2.5131250000e+002	 1.61591e-002
2823	 2.5137500000e+002	 1.97740e-002
2824	 2.5143750000e+002	 1.41097e-002
2825	 2.5150000000e+002	 1.49364e-002
2826	 2.5156250000e+002	 9.39274e-003
2827	 2.5162500000e+002	 7.68227e-003
2828	 2.5168750000e+002	 4.59119e-003
2829	 2.5175000000e+002	 5.94050e-003
2830	 2.5181250000e+002	 1.16371e-002
2831	 2.5187500000e+002	 7.19844e-003
2832	 2.5193750000e+002	 5.39587e-003
2833	 2.5200000000e+002	 6.59669e-003
2834	 2.5206250000e+002	 8.22080e-003
2835	 2.5212500000e+002	 1.23486e-002
2836	 2.5218750000e+002	 2.03318e-002
2837	 2.5225000000e+002	 1.73553e-002
2838	 2.5231250000e+002	 3.09657e-002
2839	 2.5237500000e+002	 1.15448e-002
2840	 2.5243750000e+002	 1.33600e-002
2841	 2.5250000000e+002	 1.28867e-002
2842	 2.5256250000e+002	 1.20168e-002
2843	 2.5262500000e+002	 1.06185e-002
2844	 2.5268750000e+002	 7.72684e-003
2845	 2.5275000000e+002	 1.18130e-002
2846	 2.5281250000e+002	 1.54134e-002
2847	 2.5287500000e+002	 1.47301e-002
2848	 2.5293750000e+002	 1.96917e-002
2849	 2.5300000000e+002	 1.14391e-002
2850	 2.5306250000e+002	 2.10210e-002
2851	 2.5312500000e+002	 1.79398e-002
2852	 2.5318750000e+002	 1.45589e-002
2853	 2.5325000000e+002	 1.07201e-002
2854	 2.5331250000e+002	 1.31714e-002
2855	 2.5337500000e+002	 7.10531e-003
2856	 2.5343750000e+002	 6.10387e-003
2857	 2.5350000000e+002	 1.00381e-002
2858	 2.5356250000e+002	 2.07240e-002
2859	 2.5362500000e+002	 2.80736e-002
2860	 2.5368750000e+002	 3.05679e-002
2861	 2.5375000000e+002	 2.40812e-002
2862	 2.5381250000e+002	 1.28908e-002
2863	 2.5387500000e+002	 2.56703e-003
2864	 2.5393750000e+002	 6.72338e-003
2865	 2.5400000000e+002	 1.95559e-002
2866	 2.5406250000e+002	 1.95522e-002
2867	 2.5412500000e+002	 5.95243e-003
2868	 2.5418750000e+002	 2.80375e-003
2869	 2.5425000000e+002	 4.37629e-003
2870	 2.5431250000e+002	 1.33400e-002
2871	 2.5437500000e+002	 1.67272e-002
2872	 2.5443750000e+002	 1.11415e-002
2873	 2.5450000000e+002	 1.96881e-002
2874	 2.5456250000e+002	 2.11936e-002
2875	 2.5462500000e+002	 1.95657e-002
2876	 2.5468750000e+002	 1.01623e-002
2877	 2.5475000000e+002	 1.21052e-002
2878	 2.5481250000e+002	 1.69278e-002
2879	 2.5487500000e+002	 1.37763e-002
2880	 2.5493750000e+002	 1.87836e-002
2881	 2.5500000000e+002	 1.53779e-002
2882	 2.5506250000e+002	 9.07111e-003
2883	 2.5512500000e+002	 2.09274e-002
2884	 2.5518750000e+002	 1.82154e-002
2885	 2.5525000000e+002	 5.26136e-003
2886	 2.5531250000e+002	 2.80162e-003
2887	 2.5537500000e+002	 5.58320e-003
2888	 2.5543750000e+002	 7.63267e-003
2889	 2.5550000000e+002	 1.32031e-002
2890	 2.5556250000e+002	 1.59811e-002
2891	 2.5562500000e+002	 1.32319e-002
2892	 2.5568750000e+002	 2.57949e-002
2893	 2.5575000000e+002	 3.15535e-002
2894	 2.5581250000e+002	 2.99183e-002
2895	 2.5587500000e+002	 2.49594e-002
2896	 2.5593750000e+002	 1.12702e-002
2897	 2.5600000000e+002	 9.53156e-003
2898	 2.5606250000e+002	 6.07774e-003
2899	 2.5612500000e+002	 6.41325e-003
2900	 2.5618750000e+002	 1.15050e-002
2901	 2.5625000000e+002	 2.11094e-002
2902	 2.5631250000e+002	 2.47983e-002
2903	 2.5637500000e+002	 1.38185e-002
2904	 2.5643750000e+002	 2.41364e-002
2905	 2.5650000000e+002	 1.67963e-002
2906	 2.5656250000e+002	 1.10787e-002
2907	 2.5662500000e+002	 2.44566e-002
2908	 2.5668750000e+002	 2.55560e-002
2909	 2.5675000000e+002	 1.38932e-002
2910	 2.5681250000e+002	 7.01335e-003
2911	 2.5687500000e+002	 1.89665e-002
2912	 2.5693750000e+002	 3.41673e-002
2913	 2.5700000000e+002	 3.12586e-002
2914	 2.5706250000e+002	 3.62110e-002
2915	 2.5712500000e+002	 4.95579e-002
2916	 2.5718750000e+002	 1.93154e-002
2917	 2.5725000000e+002	 1.53234e-002
2918	 2.5731250000e+002	 2.93962e-002
2919	 2.5737500000e+002	 2.43693e-002
2920	 2.5743750000e+002	 2.03508e-002
2921	 2.5750000000e+002	 2.04889e-002
2922	 2.5756250000e+002	 8.98949e-003
2923	 2.5762500000e+002	 4.98702e-003
2924	 2.5768750000e+002	 1.83814e-002
2925	 2.5775000000e+002	 4.00587e-002
2926	 2.5781250000e+002	 3.18292e-002
2927	 2.5787500000e+002	 3.11410e-002
2928	 2.5793750000e+002	 3.48646e-002
2929	 2.5800000000e+002	 1.79859e-002
2930	 2.5806250000e+002	 1.14596e-002
2931	 2.5812500000e+002	 1.57505e-002
2932	 2.5818750000e+002	 2.02364e-002
2933	 2.5825000000e+002	 3.80002e-002
2934	 2.5831250000e+002	 3.28544e-002
2935	 2.5837500000e+002	 2.27547e-002
2936	 2.5843750000e+002	 1.51940e-002
2937	 2.5850000000e+002	 4.25942e-002
2938	 2.5856250000e+002	 5.84190e-002
2939	 2.5862500000e+002	 9.82664e-002
2940	 2.5868750000e+002	 8.19815e-002
2941	 2.5875000000e+002	 2.94358e-002
2942	 2.5881250000e+002	 3.26957e-002
2943	 2.5887500000e+002	 5.84317e-002
2944	 2.5893750000e+002	 4.37793e-002
2945	 2.5900000000e+002	 2.58058e-002
2946	 2.5906250000e+002	 2.23410e-002
2947	 2.5912500000e+002	 4.30926e-002
2948	 2.5918750000e+002	 6.88118e-002
2949	 2.5925000000e+002	 6.37204e-002
2950	 2.5931250000e+002	 3.57725e-002
2951	 2.5937500000e+002	 3.89017e-002
2952	 2.5943750000e+002	 4.33820e-002
2953	 2.5950000000e+002	 4.59087e-002
2954	 2.5956250000e+002	 3.79148e-002
2955	 2.5962500000e+002	 2.25839e-002
2956	 2.5968750000e+002	 3.61059e-002
2957	 2.5975000000e+002	 5.06450e-002
2958	 2.5981250000e+002	 5.12345e-002
2959	 2.5987500000e+002	 1.21461e-001
2960	 2.5993750000e+002	 5.15564e-002
2961	 2.6000000000e+002	 3.07292e-002
2962	 2.6006250000e+002	 9.26658e-002
2963	 2.6012500000e+002	 8.37880e-002
2964	 2.6018750000e+002	 1.98307e-002
2965	 2.6025000000e+002	 2.21941e-002
2966	 2.6031250000e+002	 3.65789e-002
2967	 2.6037500000e+002	 6.62123e-002
2968	 2.6043750000e+002	 3.68261e-002
2969	 2.6050000000e+002	 3.35272e-002
2970	 2.6056250000e+002	 4.65020e-002
2971	 2.6062500000e+002	 5.54188e-002
2972	 2.6068750000e+002	 1.00021e-001
2973	 2.6075000000e+002	 1.05046e-001
2974	 2.6081250000e+002	 1.57753e-001
2975	 2.6087500000e+002	 8.64801e-002
2976	 2.6093750000e+002	 2.39668e-002
2977	 2.6100000000e+002	 3.79467e-002
2978	 2.6106250000e+002	 4.53275e-002
2979	 2.6112500000e+002	 1.68685e-002
2980	 2.6118750000e+002	 4.30247e-002
2981	 2.6125000000e+002	 1.35371e-001
2982	 2.6131250000e+002	 1.38450e-001
2983	 2.6137500000e+002	 4.22928e-002
2984	 2.6143750000e+002	 4.68166e-002
2985	 2.6150000000e+002	 8.17106e-002
2986	 2.6156250000e+002	 5.31226e-002
2987	 2.6162500000e+002	 3.58941e-002
2988	 2.6168750000e+002	 5.24179e-002
2989	 2.6175000000e+002	 7.42262e-002
2990	 2.6181250000e+002	 8.75273e-002
2991	 2.6187500000e+002	 7.58029e-002
2992	 2.6193750000e+002	 7.73526e-002
2993	 2.6200000000e+002	 4.56169e-002
2994	 2.6206250000e+002	 4.76534e-002
2995	 2.6212500000e+002	 7.75597e-002
2996	 2.6218750000e+002	 4.39217e-002
2997	 2.6225000000e+002	 7.49730e-002
2998	 2.6231250000e+002	 1.90831e-001
2999	 2.6237500000e+002	 6.24307e-002
3000	 2.6243750000e+002	 3.54392e-002
3001	 2.6250000000e+002	 1.28124e-001
3002	 2.6256250000e+002	 2.33546e-001
3003	 2.6262500000e+002	 1.78319e-001
3004	 2.6268750000e+002	 7.64632e-002
3005	 2.6275000000e+002	 9.10094e-002
3006	 2.6281250000e+002	 2.42554e-001
3007	 2.6287500000e+002	 1.48605e-001
3008	 2.6293750000e+002	 9.69288e-002
3009	 2.6300000000e+002	 8.81357e-002
3010	 2.6306250000e+002	 1.10079e-001
3011	 2.6312500000e+002	 2.31152e-001
3012	 2.6318750000e+002	 1.67809e-001
3013	 2.6325000000e+002	 8.34874e-002
3014	 2.6331250000e+002	 3.79554e-002
3015	 2.6337500000e+002	 5.04149e-002
3016	 2.6343750000e+002	 7.22142e-002
3017	 2.6350000000e+002	 6.55496e-002
3018	 2.6356250000e+002	 1.92448e-002
3019	 2.6362500000e+002	 4.30848e-002
3020	 2.6368750000e+002	 8.81064e-002
3021	 2.6375000000e+002	 6.50098e-002
3022	 2.6381250000e+002	 1.66797e-001
3023	 2.6387500000e+002	 2.95105e-001
3024	 2.6393750000e+002	 2.90282e-001
3025	 2.6400000000e+002	 2.70004e-001
3026	 2.6406250000e+002	 1.37087e-001
3027	 2.6412500000e+002	 1.41177e-001
3028	 2.6418750000e+002	 1.27841e-001
3029	 2.6425000000e+002	 2.05974e-001
3030	 2.6431250000e+002	 2.16574e-001
3031	 2.6437500000e+002	 1.02152e-001
3032	 2.6443750000e+002	 9.38936e-002
3033	 2.6450000000e+002	 8.76197e-002
3034	 2.6456250000e+002	 1.50532e-001
3035	 2.6462500000e+002	 1.59854e-001
3036	 2.6468750000e+002	 9.12935e-002
3037	 2.6475000000e+002	 1.07809e-001
3038	 2.6481250000e+002	 2.32586e-001
3039	 2.6487500000e+002	 4.00750e-001
3040	 2.6493750000e+002	 2.51810e-001
3041	 2.6500000000e+002	 1.79242e-001
3042	 2.6506250000e+002	 8.88477e-002
3043	 2.6512500000e+002	 1.28931e-001
3044	 2.6518750000e+002	 1.82364e-001
3045	 2.6525000000e+002	 1.45606e-001
3046	 2.6531250000e+002	 1.28764e-001
3047	 2.6537500000e+002	 1.65736e-001
3048	 2.6543750000e+002	 1.27848e-001
3049	 2.6550000000e+002	 1.77841e-001
3050	 2.6556250000e+002	 1.79191e-001
3051	 2.6562500000e+002	 2.22848e-001
3052	 2.6568750000e+002	 1.83213e-001
3053	 2.6575000000e+002	 2.06480e-001
3054	 2.6581250000e+002	 1.45875e-001
3055	 2.6587500000e+002	 8.22867e-002
3056	 2.6593750000e+002	 1.62657e-001
3057	 2.6600000000e+002	 3.06266e-001
3058	 2.6606250000e+002	 3.67279e-001
3059	 2.6612500000e+002	 5.51588e-001
3060	 2.6618750000e+002	 5.31684e-001
3061	 2.6625000000e+002	 3.17572e-001
3062	 2.6631250000e+002	 3.61049e-001
3063	 2.6637500000e+002	 4.26468e-001
3064	 2.6643750000e+002	 4.10998e-001
3065	 2.6650000000e+002	 3.88352e-001
3066	 2.6656250000e+002	 2.32363e-001
3067	 2.6662500000e+002	 2.99720e-001
3068	 2.6668750000e+002	 2.83804e-001
3069	 2.6675000000e+002	 2.70849e-001
3070	 2.6681250000e+002	 4.30461e-001
3071	 2.6687500000e+002	 3.39133e-001
3072	 2.6693750000e+002	 2.57252e-001
3073	 2.6700000000e+002	 3.71708e-001
3074	 2.6706250000e+002	 3.06425e-001
3075	 2.6712500000e+002	 2.72736e-001
3076	 2.6718750000e+002	 3.26064e-001
3077	 2.6725000000e+002	 2.44195e-001
3078	 2.6731250000e+002	 2.36203e-001
3079	 2.6737500000e+002	 3.09533e-001
3080	 2.6743750000e+002	 4.68305e-001
3081	 2.6750000000e+002	 2.39865e-001
3082	 2.6756250000e+002	 4.12673e-001
3083	 2.6762500000e+002	 6.13519e-001
3084	 2.6768750000e+002	 5.83492e-001
3085	 2.6775000000e+002	 3.30716e-001
3086	 2.6781250000e+002	 2.15254e-001
3087	 2.6787500000e+002	 2.83456e-001
3088	 2.6793750000e+002	 2.06422e-001
3089	 2.6800000000e+002	 2.71711e-001
3090	 2.6806250000e+002	 2.62802e-001
3091	 2.6812500000e+002	 2.91241e-001
3092	 2.6818750000e+002	 4.97124e-001
3093	 2.6825000000e+002	 4.37919e-001
3094	 2.6831250000e+002	 2.23270e-001
3095	 2.6837500000e+002	 3.74475e-001
3096	 2.6843750000e+002	 3.77135e-001
3097	 2.6850000000e+002	 2.68244e-001
3098	 2.6856250000e+002	 1.86199e-001
3099	 2.6862500000e+002	 2.94335e-001
3100	 2.6868750000e+002	 3.58798e-001
3101	 2.6875000000e+002	 2.04662e-001
3102	 2.6881250000e+002	 1.14245e-001
3103	 2.6887500000e+002	 8.80943e-002
3104	 2.6893750000e+002	 4.14548e-002
3105	 2.6900000000e+002	 4.79087e-002
3106	 2.6906250000e+002	 1.15553e-001
3107	 2.6912500000e+002	 7.74965e-002
3108	 2.6918750000e+002	 9.86711e-002
3109	 2.6925000000e+002	 1.44188e-001
3110	 2.6931250000e+002	 1.60904e-001
3111	 2.6937500000e+002	 1.91211e-001
3112	 2.6943750000e+002	 6.27759e-002
3113	 2.6950000000e+002	 3.42171e-002
3114	 2.6956250000e+002	 4.26363e-002
3115	 2.6962500000e+002	 5.75326e-002
3116	 2.6968750000e+002	 8.89955e-002
3117	 2.6975000000e+002	 6.16047e-002
3118	 2.6981250000e+002	 8.02843e-002
3119	 2.6987500000e+002	 1.19791e-001
3120	 2.6993750000e+002	 7.82634e-002
3121	 2.7000000000e+002	 1.04945e-001
3122	 2.7006250000e+002	 1.42193e-001
3123	 2.7012500000e+002	 1.08669e-001
3124	 2.7018750000e+002	 1.27297e-001
3125	 2.7025000000e+002	 1.12567e-001
3126	 2.7031250000e+002	 5.80088e-002
3127	 2.7037500000e+002	 7.33683e-002
3128	 2.7043750000e+002	 4.81238e-002
3129	 2.7050000000e+002	 4.49291e-002
3130	 2.7056250000e+002	 2.76865e-002
3131	 2.7062500000e+002	 3.46426e-002
3132	 2.7068750000e+002	 4.33518e-002
3133	 2.7075000000e+002	 3.49137e-002
3134	 2.7081250000e+002	 4.79598e-002
3135	 2.7087500000e+002	 6.93682e-002
3136	 2.7093750000e+002	 6.19103e-002
3137	 2.7100000000e+002	 1.04838e-001
3138	 2.7106250000e+002	 8.01204e-002
3139	 2.7112500000e+002	 1.09481e-001
3140	 2.7118750000e+002	 1.43906e-001
3141	 2.7125000000e+002	 6.76651e-002
3142	 2.7131250000e+002	 3.17696e-002
3143	 2.7137500000e+002	 6.99712e-002
3144	 2.7143750000e+002	 5.20214e-002
3145	 2.7150000000e+002	 2.69758e-002
3146	 2.7156250000e+002	 3.48764e-002
3147	 2.7162500000e+002	 7.25367e-002
3148	 2.7168750000e+002	 8.21546e-002
3149	 2.7175000000e+002	 7.28474e-002
3150	 2.7181250000e+002	 6.74477e-002
3151	 2.7187500000e+002	 1.05588e-001
3152	 2.7193750000e+002	 7.23923e-002
3153	 2.7200000000e+002	 6.50178e-002
3154	 2.7206250000e+002	 4.74484e-002
3155	 2.7212500000e+002	 1.87322e-002
3156	 2.7218750000e+002	 4.97800e-002
3157	 2.7225000000e+002	 5.45216e-002
3158	 2.7231250000e+002	 5.78385e-002
3159	 2.7237500000e+002	 9.76881e-002
3160	 2.7243750000e+002	 4.78110e-002
3161	 2.7250000000e+002	 3.91409e-002
3162	 2.7256250000e+002	 2.05073e-002
3163	 2.7262500000e+002	 2.16398e-002
3164	 2.7268750000e+002	 3.89108e-002
3165	 2.7275000000e+002	 3.54954e-002
3166	 2.7281250000e+002	 6.94199e-002
3167	 2.7287500000e+002	 5.00690e-002
3168	 2.7293750000e+002	 5.92599e-002
3169	 2.7300000000e+002	 1.00824e-001
3170	 2.7306250000e+002	 7.11797e-002
3171	 2.7312500000e+002	 4.10422e-002
3172	 2.7318750000e+002	 4.09456e-002
3173	 2.7325000000e+002	 3.44598e-002
3174	 2.7331250000e+002	 4.50938e-002
3175	 2.7337500000e+002	 2.57109e-002
3176	 2.7343750000e+002	 1.69672e-002
3177	 2.7350000000e+002	 3.49627e-002
3178	 2.7356250000e+002	 3.82734e-002
3179	 2.7362500000e+002	 4.43644e-002
3180	 2.7368750000e+002	 2.61316e-002
3181	 2.7375000000e+002	 5.75054e-002
3182	 2.7381250000e+002	 8.83196e-002
3183	 2.7387500000e+002	 6.88759e-002
3184	 2.7393750000e+002	 3.30739e-002
3185	 2.7400000000e+002	 1.07341e-002
3186	 2.7406250000e+002	 1.16358e-002
3187	 2.7412500000e+002	 1.30911e-002
3188	 2.7418750000e+002	 9.51675e-003
3189	 2.7425000000e+002	 2.58530e-002
3190	 2.7431250000e+002	 2.35938e-002
3191	 2.7437500000e+002	 2.45239e-002
3192	 2.7443750000e+002	 5.54728e-002
3193	 2.7450000000e+002	 4.84968e-002
3194	 2.7456250000e+002	 1.68938e-002
3195	 2.7462500000e+002	 3.17251e-002
3196	 2.7468750000e+002	 3.98977e-002
3197	 2.7475000000e+002	 2.72439e-002
3198	 2.7481250000e+002	 2.12172e-002
3199	 2.7487500000e+002	 2.37195e-002
3200	 2.7493750000e+002	 2.11891e-002
3201	 2.7500000000e+002	 2.70669e-002
TagsBegin:	 	 
OverLoad:	 	False
AverageNumber: []	 	 3.70000e+001
OverLoadRatio: []	 	 1.19209e-007
TagsEnd:	 	 
TagScalesBegin:	 	 
TagScalesEnd:	 	 
