Header Size:	 78	 
Pulse Version:	 42	 
Decimal Symbol:	.	 
Date Format:	dd-MM-yyyy	 
Time Format:	HH:mm:ss:mmm	 
Data Type:	Real	 
Slice:	False	 
Z-Axis type:	Linear	 
Z-Axis size:	1	 
Z-Axis unit:	 	 
Z-Axis first value:	 0.0000000000e+000	 
Z-Axis delta:	 1.0000000000e+000	 
X-Axis type:	Linear	 
X-Axis size:	3201	 
X-Axis unit:	Hz	 
X-Axis first value:	 7.5000000000e+001	 
X-Axis delta:	 6.2500000000e-002	 
	 	 
AmplitudeUnit:	Pa	 
Analyzer:	FFT_Spectrum_Averaging	 
AnalyzerName:	FFT Analyzer	 
	 	 
	 	 
Bipolar:	False	 
CenterFrequency:	 1.7500000000e+002	 
	 	 
	 	 
	 	 
	 	 
dBReference:	 4.0000000000e-010	 
	 	 
	 	 
	 	 
Domain:	1	 
Function:	Autospectrum	 
	 	 
InputRange:	 2.2376582278e+002	 
	 	 
	 	 
MultiBufferName:	Input	 
NBW:	 1.5000000000e+000	 
	 	 
OverlapFailed:	False	 
Overrun:	False	 
Power:	True	 
PowerUnit:	Pa²	 
	 	 
RecordLength:	 1.6000000000e+001	 
ReducedSize:	True	 
	 	 
	 	 
	 	 
	 	 
	 	 
SamplingRatio:	 1.2800000000e+000	 
Signal:	p_B_source	 
	 	 
SignalUnit:	Pa	 
	 	 
	 	 
	 	 
Title:	Autospectrum(p_B_source) - Input	 
Title1:	Working : Input : Input : FFT Analyzer	 
	 	 
	 	 
Weight:	0	 
ZoomOn:	True	 
	 	 
TemplateName:	Working	 
MeasurementName:	Input	 
MeasurementSlice:	False	 
	 	 
DeltaFrequency:	 6.2500000000e-002	 
	 	 
EnvelopeOn:	False	 
	 	 
	 	 
	 	 
Z-index:	 	1
Date:	 	05-03-2025
Time:	 	12:08:17:889
Relative time:	 	 0.00000e+000
Z-axis:	 	 0.0000000000e+000
1	 7.5000000000e+001	 7.11610e-004
2	 7.5062500000e+001	 5.79886e-004
3	 7.5125000000e+001	 1.01512e-003
4	 7.5187500000e+001	 1.23395e-003
5	 7.5250000000e+001	 1.05735e-003
6	 7.5312500000e+001	 1.39443e-003
7	 7.5375000000e+001	 1.57052e-003
8	 7.5437500000e+001	 1.19544e-003
9	 7.5500000000e+001	 9.29422e-004
10	 7.5562500000e+001	 1.03569e-003
11	 7.5625000000e+001	 1.32254e-003
12	 7.5687500000e+001	 1.20807e-003
13	 7.5750000000e+001	 2.36788e-003
14	 7.5812500000e+001	 2.52125e-003
15	 7.5875000000e+001	 1.04579e-003
16	 7.5937500000e+001	 2.54223e-003
17	 7.6000000000e+001	 2.07385e-003
18	 7.6062500000e+001	 7.92346e-004
19	 7.6125000000e+001	 7.77205e-004
20	 7.6187500000e+001	 5.54680e-004
21	 7.6250000000e+001	 9.04816e-004
22	 7.6312500000e+001	 1.03140e-003
23	 7.6375000000e+001	 8.81026e-004
24	 7.6437500000e+001	 1.26730e-003
25	 7.6500000000e+001	 1.33491e-003
26	 7.6562500000e+001	 5.90753e-004
27	 7.6625000000e+001	 1.24002e-003
28	 7.6687500000e+001	 1.24444e-003
29	 7.6750000000e+001	 8.52351e-004
30	 7.6812500000e+001	 1.03843e-003
31	 7.6875000000e+001	 1.11957e-003
32	 7.6937500000e+001	 1.03271e-003
33	 7.7000000000e+001	 6.16905e-004
34	 7.7062500000e+001	 8.26108e-004
35	 7.7125000000e+001	 7.82703e-004
36	 7.7187500000e+001	 7.57029e-004
37	 7.7250000000e+001	 1.04570e-003
38	 7.7312500000e+001	 1.29256e-003
39	 7.7375000000e+001	 9.42243e-004
40	 7.7437500000e+001	 1.04767e-003
41	 7.7500000000e+001	 5.30158e-004
42	 7.7562500000e+001	 2.02172e-004
43	 7.7625000000e+001	 5.00843e-004
44	 7.7687500000e+001	 1.27054e-003
45	 7.7750000000e+001	 1.40403e-003
46	 7.7812500000e+001	 1.87011e-003
47	 7.7875000000e+001	 1.24053e-003
48	 7.7937500000e+001	 7.56260e-004
49	 7.8000000000e+001	 2.79037e-004
50	 7.8062500000e+001	 5.56255e-004
51	 7.8125000000e+001	 1.08702e-003
52	 7.8187500000e+001	 1.34843e-003
53	 7.8250000000e+001	 1.16908e-003
54	 7.8312500000e+001	 9.47980e-004
55	 7.8375000000e+001	 1.12698e-003
56	 7.8437500000e+001	 1.27237e-003
57	 7.8500000000e+001	 1.02569e-003
58	 7.8562500000e+001	 6.02901e-004
59	 7.8625000000e+001	 9.43510e-004
60	 7.8687500000e+001	 9.71068e-004
61	 7.8750000000e+001	 1.12087e-003
62	 7.8812500000e+001	 9.68948e-004
63	 7.8875000000e+001	 1.05195e-003
64	 7.8937500000e+001	 9.58401e-004
65	 7.9000000000e+001	 7.56459e-004
66	 7.9062500000e+001	 1.16278e-003
67	 7.9125000000e+001	 8.87780e-004
68	 7.9187500000e+001	 6.51941e-004
69	 7.9250000000e+001	 1.30007e-003
70	 7.9312500000e+001	 1.04746e-003
71	 7.9375000000e+001	 1.31604e-003
72	 7.9437500000e+001	 7.82427e-004
73	 7.9500000000e+001	 1.06975e-003
74	 7.9562500000e+001	 9.51305e-004
75	 7.9625000000e+001	 1.13134e-003
76	 7.9687500000e+001	 2.53918e-003
77	 7.9750000000e+001	 1.70344e-003
78	 7.9812500000e+001	 8.01625e-004
79	 7.9875000000e+001	 9.42156e-004
80	 7.9937500000e+001	 7.24507e-004
81	 8.0000000000e+001	 1.20434e-003
82	 8.0062500000e+001	 8.72381e-004
83	 8.0125000000e+001	 1.07093e-003
84	 8.0187500000e+001	 1.35537e-003
85	 8.0250000000e+001	 1.64745e-003
86	 8.0312500000e+001	 9.98673e-004
87	 8.0375000000e+001	 8.09793e-004
88	 8.0437500000e+001	 7.25455e-004
89	 8.0500000000e+001	 1.30914e-003
90	 8.0562500000e+001	 9.74025e-004
91	 8.0625000000e+001	 1.32873e-003
92	 8.0687500000e+001	 1.21128e-003
93	 8.0750000000e+001	 1.32287e-003
94	 8.0812500000e+001	 1.01312e-003
95	 8.0875000000e+001	 1.51222e-003
96	 8.0937500000e+001	 1.11547e-003
97	 8.1000000000e+001	 3.30804e-004
98	 8.1062500000e+001	 5.51981e-004
99	 8.1125000000e+001	 6.64107e-004
100	 8.1187500000e+001	 6.02027e-004
101	 8.1250000000e+001	 8.36175e-004
102	 8.1312500000e+001	 7.17701e-004
103	 8.1375000000e+001	 7.43197e-004
104	 8.1437500000e+001	 4.88186e-004
105	 8.1500000000e+001	 8.58452e-004
106	 8.1562500000e+001	 1.22734e-003
107	 8.1625000000e+001	 1.02098e-003
108	 8.1687500000e+001	 1.16126e-003
109	 8.1750000000e+001	 1.39034e-003
110	 8.1812500000e+001	 1.68787e-003
111	 8.1875000000e+001	 1.33595e-003
112	 8.1937500000e+001	 8.46243e-004
113	 8.2000000000e+001	 8.70190e-004
114	 8.2062500000e+001	 8.85314e-004
115	 8.2125000000e+001	 1.41847e-003
116	 8.2187500000e+001	 2.31188e-003
117	 8.2250000000e+001	 2.20959e-003
118	 8.2312500000e+001	 2.18014e-003
119	 8.2375000000e+001	 1.84797e-003
120	 8.2437500000e+001	 1.41307e-003
121	 8.2500000000e+001	 1.10031e-003
122	 8.2562500000e+001	 1.11335e-003
123	 8.2625000000e+001	 1.11228e-003
124	 8.2687500000e+001	 1.26683e-003
125	 8.2750000000e+001	 1.15276e-003
126	 8.2812500000e+001	 1.57223e-003
127	 8.2875000000e+001	 1.89162e-003
128	 8.2937500000e+001	 7.75031e-004
129	 8.3000000000e+001	 1.07192e-003
130	 8.3062500000e+001	 1.51725e-003
131	 8.3125000000e+001	 9.41802e-004
132	 8.3187500000e+001	 7.73074e-004
133	 8.3250000000e+001	 7.88598e-004
134	 8.3312500000e+001	 8.77058e-004
135	 8.3375000000e+001	 1.46078e-003
136	 8.3437500000e+001	 1.50825e-003
137	 8.3500000000e+001	 8.06088e-004
138	 8.3562500000e+001	 6.87714e-004
139	 8.3625000000e+001	 1.04319e-003
140	 8.3687500000e+001	 1.30262e-003
141	 8.3750000000e+001	 1.11400e-003
142	 8.3812500000e+001	 9.22149e-004
143	 8.3875000000e+001	 1.21151e-003
144	 8.3937500000e+001	 1.22509e-003
145	 8.4000000000e+001	 1.04082e-003
146	 8.4062500000e+001	 5.08948e-004
147	 8.4125000000e+001	 8.26161e-004
148	 8.4187500000e+001	 1.35409e-003
149	 8.4250000000e+001	 1.34952e-003
150	 8.4312500000e+001	 1.31107e-003
151	 8.4375000000e+001	 6.99944e-004
152	 8.4437500000e+001	 7.89759e-004
153	 8.4500000000e+001	 9.19560e-004
154	 8.4562500000e+001	 1.94161e-003
155	 8.4625000000e+001	 1.20615e-003
156	 8.4687500000e+001	 1.89202e-003
157	 8.4750000000e+001	 2.53912e-003
158	 8.4812500000e+001	 1.67960e-003
159	 8.4875000000e+001	 1.35336e-003
160	 8.4937500000e+001	 9.96126e-004
161	 8.5000000000e+001	 9.03607e-004
162	 8.5062500000e+001	 9.81671e-004
163	 8.5125000000e+001	 1.14222e-003
164	 8.5187500000e+001	 1.06518e-003
165	 8.5250000000e+001	 3.29652e-004
166	 8.5312500000e+001	 2.61086e-004
167	 8.5375000000e+001	 9.88525e-004
168	 8.5437500000e+001	 1.18310e-003
169	 8.5500000000e+001	 4.45799e-004
170	 8.5562500000e+001	 3.71078e-004
171	 8.5625000000e+001	 8.46905e-004
172	 8.5687500000e+001	 5.74593e-004
173	 8.5750000000e+001	 6.82583e-004
174	 8.5812500000e+001	 6.92795e-004
175	 8.5875000000e+001	 2.45746e-004
176	 8.5937500000e+001	 5.75796e-004
177	 8.6000000000e+001	 1.00843e-003
178	 8.6062500000e+001	 9.19168e-004
179	 8.6125000000e+001	 7.97272e-004
180	 8.6187500000e+001	 9.77030e-004
181	 8.6250000000e+001	 9.89652e-004
182	 8.6312500000e+001	 1.26221e-003
183	 8.6375000000e+001	 1.13057e-003
184	 8.6437500000e+001	 4.89871e-004
185	 8.6500000000e+001	 9.39061e-004
186	 8.6562500000e+001	 1.98722e-003
187	 8.6625000000e+001	 1.42647e-003
188	 8.6687500000e+001	 8.12459e-004
189	 8.6750000000e+001	 7.57471e-004
190	 8.6812500000e+001	 1.00844e-003
191	 8.6875000000e+001	 1.38206e-003
192	 8.6937500000e+001	 1.09608e-003
193	 8.7000000000e+001	 7.95551e-004
194	 8.7062500000e+001	 1.29941e-003
195	 8.7125000000e+001	 9.14489e-004
196	 8.7187500000e+001	 2.13780e-003
197	 8.7250000000e+001	 1.64019e-003
198	 8.7312500000e+001	 1.37475e-003
199	 8.7375000000e+001	 1.19994e-003
200	 8.7437500000e+001	 1.05105e-003
201	 8.7500000000e+001	 9.00015e-004
202	 8.7562500000e+001	 1.80777e-003
203	 8.7625000000e+001	 2.45049e-003
204	 8.7687500000e+001	 1.46608e-003
205	 8.7750000000e+001	 1.08363e-003
206	 8.7812500000e+001	 1.03227e-003
207	 8.7875000000e+001	 1.94531e-003
208	 8.7937500000e+001	 2.38660e-003
209	 8.8000000000e+001	 2.18377e-003
210	 8.8062500000e+001	 8.31936e-004
211	 8.8125000000e+001	 1.39474e-003
212	 8.8187500000e+001	 1.33030e-003
213	 8.8250000000e+001	 1.26860e-003
214	 8.8312500000e+001	 2.20141e-003
215	 8.8375000000e+001	 1.77330e-003
216	 8.8437500000e+001	 2.16689e-003
217	 8.8500000000e+001	 2.96015e-003
218	 8.8562500000e+001	 2.26215e-003
219	 8.8625000000e+001	 2.00451e-003
220	 8.8687500000e+001	 1.79275e-003
221	 8.8750000000e+001	 1.49867e-003
222	 8.8812500000e+001	 1.47442e-003
223	 8.8875000000e+001	 2.83878e-003
224	 8.8937500000e+001	 2.32259e-003
225	 8.9000000000e+001	 1.30166e-003
226	 8.9062500000e+001	 1.44182e-003
227	 8.9125000000e+001	 2.44953e-003
228	 8.9187500000e+001	 2.71295e-003
229	 8.9250000000e+001	 1.46178e-003
230	 8.9312500000e+001	 2.03764e-003
231	 8.9375000000e+001	 1.87976e-003
232	 8.9437500000e+001	 1.12205e-003
233	 8.9500000000e+001	 2.17301e-003
234	 8.9562500000e+001	 2.83694e-003
235	 8.9625000000e+001	 1.34421e-003
236	 8.9687500000e+001	 1.29655e-003
237	 8.9750000000e+001	 1.63539e-003
238	 8.9812500000e+001	 1.23299e-003
239	 8.9875000000e+001	 1.71965e-003
240	 8.9937500000e+001	 3.40387e-003
241	 9.0000000000e+001	 1.75645e-003
242	 9.0062500000e+001	 1.02178e-003
243	 9.0125000000e+001	 8.98024e-004
244	 9.0187500000e+001	 1.38133e-003
245	 9.0250000000e+001	 1.19072e-003
246	 9.0312500000e+001	 9.91150e-004
247	 9.0375000000e+001	 1.44673e-003
248	 9.0437500000e+001	 2.30610e-003
249	 9.0500000000e+001	 2.44278e-003
250	 9.0562500000e+001	 2.49220e-003
251	 9.0625000000e+001	 2.19998e-003
252	 9.0687500000e+001	 2.12078e-003
253	 9.0750000000e+001	 2.61169e-003
254	 9.0812500000e+001	 2.14385e-003
255	 9.0875000000e+001	 1.02788e-003
256	 9.0937500000e+001	 2.27819e-003
257	 9.1000000000e+001	 3.01526e-003
258	 9.1062500000e+001	 1.43161e-003
259	 9.1125000000e+001	 7.53211e-004
260	 9.1187500000e+001	 2.02461e-003
261	 9.1250000000e+001	 1.79591e-003
262	 9.1312500000e+001	 1.14147e-003
263	 9.1375000000e+001	 2.36816e-003
264	 9.1437500000e+001	 2.16551e-003
265	 9.1500000000e+001	 1.03698e-003
266	 9.1562500000e+001	 1.06900e-003
267	 9.1625000000e+001	 2.30549e-003
268	 9.1687500000e+001	 2.99327e-003
269	 9.1750000000e+001	 4.25894e-003
270	 9.1812500000e+001	 2.80912e-003
271	 9.1875000000e+001	 9.02557e-004
272	 9.1937500000e+001	 1.28882e-003
273	 9.2000000000e+001	 9.97960e-004
274	 9.2062500000e+001	 6.14364e-004
275	 9.2125000000e+001	 1.44927e-003
276	 9.2187500000e+001	 1.24599e-003
277	 9.2250000000e+001	 1.30698e-003
278	 9.2312500000e+001	 2.51728e-003
279	 9.2375000000e+001	 2.92802e-003
280	 9.2437500000e+001	 1.66098e-003
281	 9.2500000000e+001	 1.71556e-003
282	 9.2562500000e+001	 1.87725e-003
283	 9.2625000000e+001	 1.43264e-003
284	 9.2687500000e+001	 1.73079e-003
285	 9.2750000000e+001	 2.03442e-003
286	 9.2812500000e+001	 2.54001e-003
287	 9.2875000000e+001	 3.72447e-003
288	 9.2937500000e+001	 4.29503e-003
289	 9.3000000000e+001	 1.77411e-003
290	 9.3062500000e+001	 5.44943e-003
291	 9.3125000000e+001	 6.62284e-003
292	 9.3187500000e+001	 3.66006e-003
293	 9.3250000000e+001	 2.16708e-003
294	 9.3312500000e+001	 2.45603e-003
295	 9.3375000000e+001	 5.10500e-003
296	 9.3437500000e+001	 3.11555e-003
297	 9.3500000000e+001	 1.16108e-003
298	 9.3562500000e+001	 1.77454e-003
299	 9.3625000000e+001	 3.20021e-003
300	 9.3687500000e+001	 3.79144e-003
301	 9.3750000000e+001	 2.81396e-003
302	 9.3812500000e+001	 3.15758e-003
303	 9.3875000000e+001	 2.03645e-003
304	 9.3937500000e+001	 1.84138e-003
305	 9.4000000000e+001	 1.17695e-003
306	 9.4062500000e+001	 8.62616e-004
307	 9.4125000000e+001	 1.40079e-003
308	 9.4187500000e+001	 8.92504e-004
309	 9.4250000000e+001	 9.62237e-004
310	 9.4312500000e+001	 1.86923e-003
311	 9.4375000000e+001	 4.76019e-003
312	 9.4437500000e+001	 4.53412e-003
313	 9.4500000000e+001	 2.69283e-003
314	 9.4562500000e+001	 3.36784e-003
315	 9.4625000000e+001	 3.19631e-003
316	 9.4687500000e+001	 1.66256e-003
317	 9.4750000000e+001	 2.06337e-003
318	 9.4812500000e+001	 2.96013e-003
319	 9.4875000000e+001	 2.17226e-003
320	 9.4937500000e+001	 1.81459e-003
321	 9.5000000000e+001	 2.21802e-003
322	 9.5062500000e+001	 3.83452e-003
323	 9.5125000000e+001	 5.30950e-003
324	 9.5187500000e+001	 3.29174e-003
325	 9.5250000000e+001	 4.44109e-003
326	 9.5312500000e+001	 3.05087e-003
327	 9.5375000000e+001	 3.17607e-003
328	 9.5437500000e+001	 4.30964e-003
329	 9.5500000000e+001	 4.52832e-003
330	 9.5562500000e+001	 3.69727e-003
331	 9.5625000000e+001	 2.58871e-003
332	 9.5687500000e+001	 3.11819e-003
333	 9.5750000000e+001	 4.16181e-003
334	 9.5812500000e+001	 2.79309e-003
335	 9.5875000000e+001	 3.03115e-003
336	 9.5937500000e+001	 3.66931e-003
337	 9.6000000000e+001	 2.72843e-003
338	 9.6062500000e+001	 2.45781e-003
339	 9.6125000000e+001	 2.78307e-003
340	 9.6187500000e+001	 5.40805e-003
341	 9.6250000000e+001	 5.97174e-003
342	 9.6312500000e+001	 3.75587e-003
343	 9.6375000000e+001	 5.28189e-003
344	 9.6437500000e+001	 5.66623e-003
345	 9.6500000000e+001	 3.48548e-003
346	 9.6562500000e+001	 3.26971e-003
347	 9.6625000000e+001	 4.41358e-003
348	 9.6687500000e+001	 4.51441e-003
349	 9.6750000000e+001	 4.65132e-003
350	 9.6812500000e+001	 8.77471e-003
351	 9.6875000000e+001	 8.54484e-003
352	 9.6937500000e+001	 5.76603e-003
353	 9.7000000000e+001	 3.40120e-003
354	 9.7062500000e+001	 5.11959e-003
355	 9.7125000000e+001	 6.41161e-003
356	 9.7187500000e+001	 9.43411e-003
357	 9.7250000000e+001	 7.57531e-003
358	 9.7312500000e+001	 5.35951e-003
359	 9.7375000000e+001	 4.70749e-003
360	 9.7437500000e+001	 2.54874e-003
361	 9.7500000000e+001	 6.51986e-003
362	 9.7562500000e+001	 7.62488e-003
363	 9.7625000000e+001	 3.38065e-003
364	 9.7687500000e+001	 3.07806e-003
365	 9.7750000000e+001	 6.26095e-003
366	 9.7812500000e+001	 7.53820e-003
367	 9.7875000000e+001	 7.48692e-003
368	 9.7937500000e+001	 5.43541e-003
369	 9.8000000000e+001	 6.68623e-003
370	 9.8062500000e+001	 3.98037e-003
371	 9.8125000000e+001	 2.56840e-003
372	 9.8187500000e+001	 4.64423e-003
373	 9.8250000000e+001	 1.99175e-003
374	 9.8312500000e+001	 5.02481e-003
375	 9.8375000000e+001	 6.83529e-003
376	 9.8437500000e+001	 4.35813e-003
377	 9.8500000000e+001	 5.23242e-003
378	 9.8562500000e+001	 7.27093e-003
379	 9.8625000000e+001	 5.78871e-003
380	 9.8687500000e+001	 5.18827e-003
381	 9.8750000000e+001	 2.76069e-003
382	 9.8812500000e+001	 4.35134e-003
383	 9.8875000000e+001	 1.12333e-002
384	 9.8937500000e+001	 9.86626e-003
385	 9.9000000000e+001	 6.07635e-003
386	 9.9062500000e+001	 5.09096e-003
387	 9.9125000000e+001	 7.69437e-003
388	 9.9187500000e+001	 5.35949e-003
389	 9.9250000000e+001	 9.80056e-003
390	 9.9312500000e+001	 9.07968e-003
391	 9.9375000000e+001	 4.66336e-003
392	 9.9437500000e+001	 4.18130e-003
393	 9.9500000000e+001	 6.68492e-003
394	 9.9562500000e+001	 3.69287e-003
395	 9.9625000000e+001	 3.22183e-003
396	 9.9687500000e+001	 7.07076e-003
397	 9.9750000000e+001	 9.21127e-003
398	 9.9812500000e+001	 5.34259e-003
399	 9.9875000000e+001	 5.46476e-003
400	 9.9937500000e+001	 6.31484e-003
401	 1.0000000000e+002	 7.40197e-003
402	 1.0006250000e+002	 4.87760e-003
403	 1.0012500000e+002	 5.92252e-003
404	 1.0018750000e+002	 5.24054e-003
405	 1.0025000000e+002	 5.76886e-003
406	 1.0031250000e+002	 4.93184e-003
407	 1.0037500000e+002	 1.06825e-002
408	 1.0043750000e+002	 1.54654e-002
409	 1.0050000000e+002	 9.24008e-003
410	 1.0056250000e+002	 6.24315e-003
411	 1.0062500000e+002	 4.55675e-003
412	 1.0068750000e+002	 5.84973e-003
413	 1.0075000000e+002	 1.25688e-002
414	 1.0081250000e+002	 1.51579e-002
415	 1.0087500000e+002	 8.14109e-003
416	 1.0093750000e+002	 9.61887e-003
417	 1.0100000000e+002	 9.30881e-003
418	 1.0106250000e+002	 7.47438e-003
419	 1.0112500000e+002	 7.23463e-003
420	 1.0118750000e+002	 8.27160e-003
421	 1.0125000000e+002	 9.26140e-003
422	 1.0131250000e+002	 8.93398e-003
423	 1.0137500000e+002	 4.36182e-003
424	 1.0143750000e+002	 8.88281e-003
425	 1.0150000000e+002	 6.69344e-003
426	 1.0156250000e+002	 4.53904e-003
427	 1.0162500000e+002	 1.41461e-002
428	 1.0168750000e+002	 1.45937e-002
429	 1.0175000000e+002	 1.57508e-002
430	 1.0181250000e+002	 1.82201e-002
431	 1.0187500000e+002	 1.23312e-002
432	 1.0193750000e+002	 1.13077e-002
433	 1.0200000000e+002	 1.59348e-002
434	 1.0206250000e+002	 1.33343e-002
435	 1.0212500000e+002	 6.13111e-003
436	 1.0218750000e+002	 7.50367e-003
437	 1.0225000000e+002	 8.02836e-003
438	 1.0231250000e+002	 8.15312e-003
439	 1.0237500000e+002	 1.11019e-002
440	 1.0243750000e+002	 1.17387e-002
441	 1.0250000000e+002	 1.94229e-002
442	 1.0256250000e+002	 2.61279e-002
443	 1.0262500000e+002	 1.82359e-002
444	 1.0268750000e+002	 1.57932e-002
445	 1.0275000000e+002	 2.06826e-002
446	 1.0281250000e+002	 2.62162e-002
447	 1.0287500000e+002	 2.72852e-002
448	 1.0293750000e+002	 1.92996e-002
449	 1.0300000000e+002	 1.97081e-002
450	 1.0306250000e+002	 1.48133e-002
451	 1.0312500000e+002	 2.39483e-002
452	 1.0318750000e+002	 4.37464e-002
453	 1.0325000000e+002	 1.49811e-002
454	 1.0331250000e+002	 1.05785e-002
455	 1.0337500000e+002	 1.93099e-002
456	 1.0343750000e+002	 2.40531e-002
457	 1.0350000000e+002	 2.60770e-002
458	 1.0356250000e+002	 3.32728e-002
459	 1.0362500000e+002	 2.25381e-002
460	 1.0368750000e+002	 1.77940e-002
461	 1.0375000000e+002	 1.87986e-002
462	 1.0381250000e+002	 1.67630e-002
463	 1.0387500000e+002	 1.79726e-002
464	 1.0393750000e+002	 1.76994e-002
465	 1.0400000000e+002	 2.54461e-002
466	 1.0406250000e+002	 2.48459e-002
467	 1.0412500000e+002	 1.13399e-002
468	 1.0418750000e+002	 3.53315e-002
469	 1.0425000000e+002	 5.68376e-002
470	 1.0431250000e+002	 4.45534e-002
471	 1.0437500000e+002	 3.05125e-002
472	 1.0443750000e+002	 1.51343e-002
473	 1.0450000000e+002	 1.56497e-002
474	 1.0456250000e+002	 2.23959e-002
475	 1.0462500000e+002	 1.54300e-002
476	 1.0468750000e+002	 3.56056e-002
477	 1.0475000000e+002	 3.64829e-002
478	 1.0481250000e+002	 2.41298e-002
479	 1.0487500000e+002	 3.88377e-002
480	 1.0493750000e+002	 4.78280e-002
481	 1.0500000000e+002	 4.09025e-002
482	 1.0506250000e+002	 3.07609e-002
483	 1.0512500000e+002	 3.67718e-002
484	 1.0518750000e+002	 2.60909e-002
485	 1.0525000000e+002	 3.49094e-002
486	 1.0531250000e+002	 4.12191e-002
487	 1.0537500000e+002	 4.11626e-002
488	 1.0543750000e+002	 5.45479e-002
489	 1.0550000000e+002	 6.15361e-002
490	 1.0556250000e+002	 3.39319e-002
491	 1.0562500000e+002	 3.21584e-002
492	 1.0568750000e+002	 3.76763e-002
493	 1.0575000000e+002	 3.25767e-002
494	 1.0581250000e+002	 1.83170e-002
495	 1.0587500000e+002	 1.51830e-002
496	 1.0593750000e+002	 2.97860e-002
497	 1.0600000000e+002	 5.61820e-002
498	 1.0606250000e+002	 8.48578e-002
499	 1.0612500000e+002	 8.09785e-002
500	 1.0618750000e+002	 4.89136e-002
501	 1.0625000000e+002	 3.48086e-002
502	 1.0631250000e+002	 3.92284e-002
503	 1.0637500000e+002	 7.13327e-002
504	 1.0643750000e+002	 5.68323e-002
505	 1.0650000000e+002	 5.46997e-002
506	 1.0656250000e+002	 1.10056e-001
507	 1.0662500000e+002	 1.12825e-001
508	 1.0668750000e+002	 9.80300e-002
509	 1.0675000000e+002	 7.72614e-002
510	 1.0681250000e+002	 6.46157e-002
511	 1.0687500000e+002	 8.69681e-002
512	 1.0693750000e+002	 1.78290e-001
513	 1.0700000000e+002	 1.95866e-001
514	 1.0706250000e+002	 1.73809e-001
515	 1.0712500000e+002	 2.07321e-001
516	 1.0718750000e+002	 1.49999e-001
517	 1.0725000000e+002	 1.45083e-001
518	 1.0731250000e+002	 1.55814e-001
519	 1.0737500000e+002	 1.24701e-001
520	 1.0743750000e+002	 1.03881e-001
521	 1.0750000000e+002	 1.54920e-001
522	 1.0756250000e+002	 2.17411e-001
523	 1.0762500000e+002	 1.68650e-001
524	 1.0768750000e+002	 2.17878e-001
525	 1.0775000000e+002	 1.63622e-001
526	 1.0781250000e+002	 1.00166e-001
527	 1.0787500000e+002	 1.82450e-001
528	 1.0793750000e+002	 2.18662e-001
529	 1.0800000000e+002	 1.65664e-001
530	 1.0806250000e+002	 1.03421e-001
531	 1.0812500000e+002	 1.17070e-001
532	 1.0818750000e+002	 1.13003e-001
533	 1.0825000000e+002	 1.30516e-001
534	 1.0831250000e+002	 2.03419e-001
535	 1.0837500000e+002	 1.41600e-001
536	 1.0843750000e+002	 7.23287e-002
537	 1.0850000000e+002	 5.58758e-002
538	 1.0856250000e+002	 6.33532e-002
539	 1.0862500000e+002	 6.83897e-002
540	 1.0868750000e+002	 5.50412e-002
541	 1.0875000000e+002	 6.92208e-002
542	 1.0881250000e+002	 9.84860e-002
543	 1.0887500000e+002	 1.00209e-001
544	 1.0893750000e+002	 6.66948e-002
545	 1.0900000000e+002	 1.06954e-001
546	 1.0906250000e+002	 7.70087e-002
547	 1.0912500000e+002	 7.55821e-002
548	 1.0918750000e+002	 1.13454e-001
549	 1.0925000000e+002	 1.11106e-001
550	 1.0931250000e+002	 1.23057e-001
551	 1.0937500000e+002	 1.20139e-001
552	 1.0943750000e+002	 7.07856e-002
553	 1.0950000000e+002	 8.64392e-002
554	 1.0956250000e+002	 1.12874e-001
555	 1.0962500000e+002	 1.54925e-001
556	 1.0968750000e+002	 1.23231e-001
557	 1.0975000000e+002	 7.35207e-002
558	 1.0981250000e+002	 8.60606e-002
559	 1.0987500000e+002	 7.12921e-002
560	 1.0993750000e+002	 1.24486e-001
561	 1.1000000000e+002	 1.00107e-001
562	 1.1006250000e+002	 6.84270e-002
563	 1.1012500000e+002	 9.52290e-002
564	 1.1018750000e+002	 1.53545e-001
565	 1.1025000000e+002	 6.45328e-002
566	 1.1031250000e+002	 9.85860e-002
567	 1.1037500000e+002	 1.09546e-001
568	 1.1043750000e+002	 8.34330e-002
569	 1.1050000000e+002	 6.53595e-002
570	 1.1056250000e+002	 5.25408e-002
571	 1.1062500000e+002	 8.32801e-002
572	 1.1068750000e+002	 4.79418e-002
573	 1.1075000000e+002	 4.87435e-002
574	 1.1081250000e+002	 6.18642e-002
575	 1.1087500000e+002	 9.11950e-002
576	 1.1093750000e+002	 1.09171e-001
577	 1.1100000000e+002	 4.99890e-002
578	 1.1106250000e+002	 5.47165e-002
579	 1.1112500000e+002	 7.01410e-002
580	 1.1118750000e+002	 3.59543e-002
581	 1.1125000000e+002	 2.29375e-002
582	 1.1131250000e+002	 3.81044e-002
583	 1.1137500000e+002	 4.28872e-002
584	 1.1143750000e+002	 3.24530e-002
585	 1.1150000000e+002	 2.82873e-002
586	 1.1156250000e+002	 4.31799e-002
587	 1.1162500000e+002	 3.51710e-002
588	 1.1168750000e+002	 2.77753e-002
589	 1.1175000000e+002	 2.73895e-002
590	 1.1181250000e+002	 4.03315e-002
591	 1.1187500000e+002	 5.56936e-002
592	 1.1193750000e+002	 6.02505e-002
593	 1.1200000000e+002	 6.08804e-002
594	 1.1206250000e+002	 6.24553e-002
595	 1.1212500000e+002	 2.25595e-002
596	 1.1218750000e+002	 2.15487e-002
597	 1.1225000000e+002	 3.05535e-002
598	 1.1231250000e+002	 2.79121e-002
599	 1.1237500000e+002	 4.52105e-002
600	 1.1243750000e+002	 8.50165e-002
601	 1.1250000000e+002	 4.46419e-002
602	 1.1256250000e+002	 4.00567e-002
603	 1.1262500000e+002	 8.60460e-002
604	 1.1268750000e+002	 6.54110e-002
605	 1.1275000000e+002	 5.41406e-002
606	 1.1281250000e+002	 5.08444e-002
607	 1.1287500000e+002	 4.08029e-002
608	 1.1293750000e+002	 2.81388e-002
609	 1.1300000000e+002	 1.39313e-002
610	 1.1306250000e+002	 2.24922e-002
611	 1.1312500000e+002	 3.39344e-002
612	 1.1318750000e+002	 4.52343e-002
613	 1.1325000000e+002	 7.01991e-002
614	 1.1331250000e+002	 7.61347e-002
615	 1.1337500000e+002	 4.96837e-002
616	 1.1343750000e+002	 3.85439e-002
617	 1.1350000000e+002	 5.17201e-002
618	 1.1356250000e+002	 2.94352e-002
619	 1.1362500000e+002	 1.99921e-002
620	 1.1368750000e+002	 2.79658e-002
621	 1.1375000000e+002	 3.54732e-002
622	 1.1381250000e+002	 1.86212e-002
623	 1.1387500000e+002	 1.05823e-002
624	 1.1393750000e+002	 1.67237e-002
625	 1.1400000000e+002	 3.46997e-002
626	 1.1406250000e+002	 2.89245e-002
627	 1.1412500000e+002	 2.88398e-002
628	 1.1418750000e+002	 3.27858e-002
629	 1.1425000000e+002	 4.14666e-002
630	 1.1431250000e+002	 3.21461e-002
631	 1.1437500000e+002	 3.98026e-002
632	 1.1443750000e+002	 3.91448e-002
633	 1.1450000000e+002	 1.83368e-002
634	 1.1456250000e+002	 1.87778e-002
635	 1.1462500000e+002	 1.21241e-002
636	 1.1468750000e+002	 1.90281e-002
637	 1.1475000000e+002	 1.83835e-002
638	 1.1481250000e+002	 8.57365e-003
639	 1.1487500000e+002	 1.32208e-002
640	 1.1493750000e+002	 1.57014e-002
641	 1.1500000000e+002	 1.98326e-002
642	 1.1506250000e+002	 1.56301e-002
643	 1.1512500000e+002	 1.41846e-002
644	 1.1518750000e+002	 1.33716e-002
645	 1.1525000000e+002	 1.46359e-002
646	 1.1531250000e+002	 1.20798e-002
647	 1.1537500000e+002	 2.17681e-002
648	 1.1543750000e+002	 1.60306e-002
649	 1.1550000000e+002	 1.35261e-002
650	 1.1556250000e+002	 2.05252e-002
651	 1.1562500000e+002	 2.23380e-002
652	 1.1568750000e+002	 1.82645e-002
653	 1.1575000000e+002	 1.33343e-002
654	 1.1581250000e+002	 1.21096e-002
655	 1.1587500000e+002	 1.68398e-002
656	 1.1593750000e+002	 8.60513e-003
657	 1.1600000000e+002	 1.09358e-002
658	 1.1606250000e+002	 1.83769e-002
659	 1.1612500000e+002	 2.32858e-002
660	 1.1618750000e+002	 1.50938e-002
661	 1.1625000000e+002	 1.65141e-002
662	 1.1631250000e+002	 1.49637e-002
663	 1.1637500000e+002	 1.52730e-002
664	 1.1643750000e+002	 2.34829e-002
665	 1.1650000000e+002	 2.41813e-002
666	 1.1656250000e+002	 1.59707e-002
667	 1.1662500000e+002	 1.37454e-002
668	 1.1668750000e+002	 1.49277e-002
669	 1.1675000000e+002	 9.11185e-003
670	 1.1681250000e+002	 7.93562e-003
671	 1.1687500000e+002	 8.64267e-003
672	 1.1693750000e+002	 1.02447e-002
673	 1.1700000000e+002	 1.22970e-002
674	 1.1706250000e+002	 2.20996e-002
675	 1.1712500000e+002	 1.65832e-002
676	 1.1718750000e+002	 7.78038e-003
677	 1.1725000000e+002	 7.46073e-003
678	 1.1731250000e+002	 1.53813e-002
679	 1.1737500000e+002	 1.37325e-002
680	 1.1743750000e+002	 7.82404e-003
681	 1.1750000000e+002	 1.08757e-002
682	 1.1756250000e+002	 1.20624e-002
683	 1.1762500000e+002	 8.05264e-003
684	 1.1768750000e+002	 1.02117e-002
685	 1.1775000000e+002	 7.73027e-003
686	 1.1781250000e+002	 7.80899e-003
687	 1.1787500000e+002	 1.03718e-002
688	 1.1793750000e+002	 1.00402e-002
689	 1.1800000000e+002	 6.01567e-003
690	 1.1806250000e+002	 3.24861e-003
691	 1.1812500000e+002	 8.45395e-003
692	 1.1818750000e+002	 2.37733e-002
693	 1.1825000000e+002	 1.56823e-002
694	 1.1831250000e+002	 1.18305e-002
695	 1.1837500000e+002	 7.98233e-003
696	 1.1843750000e+002	 8.33350e-003
697	 1.1850000000e+002	 1.09031e-002
698	 1.1856250000e+002	 9.53066e-003
699	 1.1862500000e+002	 1.07954e-002
700	 1.1868750000e+002	 1.64375e-002
701	 1.1875000000e+002	 1.89541e-002
702	 1.1881250000e+002	 1.23577e-002
703	 1.1887500000e+002	 1.00008e-002
704	 1.1893750000e+002	 1.21600e-002
705	 1.1900000000e+002	 9.29723e-003
706	 1.1906250000e+002	 9.01026e-003
707	 1.1912500000e+002	 4.36113e-003
708	 1.1918750000e+002	 9.40701e-003
709	 1.1925000000e+002	 1.21486e-002
710	 1.1931250000e+002	 1.22139e-002
711	 1.1937500000e+002	 1.44258e-002
712	 1.1943750000e+002	 9.35847e-003
713	 1.1950000000e+002	 5.56067e-003
714	 1.1956250000e+002	 6.62254e-003
715	 1.1962500000e+002	 5.93857e-003
716	 1.1968750000e+002	 7.86211e-003
717	 1.1975000000e+002	 1.42243e-002
718	 1.1981250000e+002	 1.05565e-002
719	 1.1987500000e+002	 1.69247e-002
720	 1.1993750000e+002	 1.31942e-002
721	 1.2000000000e+002	 1.30233e-002
722	 1.2006250000e+002	 1.73832e-002
723	 1.2012500000e+002	 1.07961e-002
724	 1.2018750000e+002	 2.84895e-003
725	 1.2025000000e+002	 8.67111e-003
726	 1.2031250000e+002	 1.33181e-002
727	 1.2037500000e+002	 5.36357e-003
728	 1.2043750000e+002	 6.17213e-003
729	 1.2050000000e+002	 9.32180e-003
730	 1.2056250000e+002	 1.62539e-002
731	 1.2062500000e+002	 1.21148e-002
732	 1.2068750000e+002	 4.81908e-003
733	 1.2075000000e+002	 7.68608e-003
734	 1.2081250000e+002	 1.53376e-002
735	 1.2087500000e+002	 8.03094e-003
736	 1.2093750000e+002	 9.41289e-003
737	 1.2100000000e+002	 1.55089e-002
738	 1.2106250000e+002	 1.05225e-002
739	 1.2112500000e+002	 4.52603e-003
740	 1.2118750000e+002	 6.90115e-003
741	 1.2125000000e+002	 1.06775e-002
742	 1.2131250000e+002	 8.62994e-003
743	 1.2137500000e+002	 3.95975e-003
744	 1.2143750000e+002	 1.37564e-003
745	 1.2150000000e+002	 2.16714e-003
746	 1.2156250000e+002	 2.05963e-003
747	 1.2162500000e+002	 4.72688e-003
748	 1.2168750000e+002	 6.48023e-003
749	 1.2175000000e+002	 6.41573e-003
750	 1.2181250000e+002	 1.20803e-002
751	 1.2187500000e+002	 9.21527e-003
752	 1.2193750000e+002	 4.81390e-003
753	 1.2200000000e+002	 6.86813e-003
754	 1.2206250000e+002	 6.04595e-003
755	 1.2212500000e+002	 6.96599e-003
756	 1.2218750000e+002	 6.15604e-003
757	 1.2225000000e+002	 6.67176e-003
758	 1.2231250000e+002	 4.87260e-003
759	 1.2237500000e+002	 3.17972e-003
760	 1.2243750000e+002	 6.52400e-003
761	 1.2250000000e+002	 1.12849e-002
762	 1.2256250000e+002	 8.99277e-003
763	 1.2262500000e+002	 7.52368e-003
764	 1.2268750000e+002	 7.54993e-003
765	 1.2275000000e+002	 6.16333e-003
766	 1.2281250000e+002	 3.77852e-003
767	 1.2287500000e+002	 3.60757e-003
768	 1.2293750000e+002	 3.93997e-003
769	 1.2300000000e+002	 4.45320e-003
770	 1.2306250000e+002	 5.02963e-003
771	 1.2312500000e+002	 9.31899e-003
772	 1.2318750000e+002	 1.12065e-002
773	 1.2325000000e+002	 6.22177e-003
774	 1.2331250000e+002	 3.42313e-003
775	 1.2337500000e+002	 5.00092e-003
776	 1.2343750000e+002	 2.23891e-003
777	 1.2350000000e+002	 2.05983e-003
778	 1.2356250000e+002	 4.94358e-003
779	 1.2362500000e+002	 4.81743e-003
780	 1.2368750000e+002	 7.12707e-003
781	 1.2375000000e+002	 6.51609e-003
782	 1.2381250000e+002	 9.97619e-003
783	 1.2387500000e+002	 7.76028e-003
784	 1.2393750000e+002	 5.81664e-003
785	 1.2400000000e+002	 6.22995e-003
786	 1.2406250000e+002	 4.71790e-003
787	 1.2412500000e+002	 2.40797e-003
788	 1.2418750000e+002	 5.48305e-003
789	 1.2425000000e+002	 6.93343e-003
790	 1.2431250000e+002	 1.18899e-002
791	 1.2437500000e+002	 9.37586e-003
792	 1.2443750000e+002	 3.59390e-003
793	 1.2450000000e+002	 7.60321e-003
794	 1.2456250000e+002	 1.29428e-002
795	 1.2462500000e+002	 1.00264e-002
796	 1.2468750000e+002	 6.89474e-003
797	 1.2475000000e+002	 7.39040e-003
798	 1.2481250000e+002	 6.05786e-003
799	 1.2487500000e+002	 3.10897e-003
800	 1.2493750000e+002	 3.65294e-003
801	 1.2500000000e+002	 4.93763e-003
802	 1.2506250000e+002	 5.12731e-003
803	 1.2512500000e+002	 4.40950e-003
804	 1.2518750000e+002	 8.03483e-003
805	 1.2525000000e+002	 8.74525e-003
806	 1.2531250000e+002	 6.73799e-003
807	 1.2537500000e+002	 6.29115e-003
808	 1.2543750000e+002	 4.70456e-003
809	 1.2550000000e+002	 5.77064e-003
810	 1.2556250000e+002	 1.00056e-002
811	 1.2562500000e+002	 9.63908e-003
812	 1.2568750000e+002	 5.31435e-003
813	 1.2575000000e+002	 4.28351e-003
814	 1.2581250000e+002	 3.18080e-003
815	 1.2587500000e+002	 3.68589e-003
816	 1.2593750000e+002	 7.93039e-003
817	 1.2600000000e+002	 8.73159e-003
818	 1.2606250000e+002	 5.51602e-003
819	 1.2612500000e+002	 4.43779e-003
820	 1.2618750000e+002	 4.87588e-003
821	 1.2625000000e+002	 7.24421e-003
822	 1.2631250000e+002	 4.64791e-003
823	 1.2637500000e+002	 1.77264e-003
824	 1.2643750000e+002	 2.41363e-003
825	 1.2650000000e+002	 4.46196e-003
826	 1.2656250000e+002	 8.07884e-003
827	 1.2662500000e+002	 3.70695e-003
828	 1.2668750000e+002	 2.65350e-003
829	 1.2675000000e+002	 2.46520e-003
830	 1.2681250000e+002	 4.06378e-003
831	 1.2687500000e+002	 6.26985e-003
832	 1.2693750000e+002	 6.80417e-003
833	 1.2700000000e+002	 5.91167e-003
834	 1.2706250000e+002	 4.97697e-003
835	 1.2712500000e+002	 4.28737e-003
836	 1.2718750000e+002	 7.38778e-003
837	 1.2725000000e+002	 1.15403e-002
838	 1.2731250000e+002	 4.70151e-003
839	 1.2737500000e+002	 3.96838e-003
840	 1.2743750000e+002	 4.93865e-003
841	 1.2750000000e+002	 4.64239e-003
842	 1.2756250000e+002	 3.70385e-003
843	 1.2762500000e+002	 3.27817e-003
844	 1.2768750000e+002	 3.82969e-003
845	 1.2775000000e+002	 5.53704e-003
846	 1.2781250000e+002	 4.21102e-003
847	 1.2787500000e+002	 2.16847e-003
848	 1.2793750000e+002	 3.06146e-003
849	 1.2800000000e+002	 6.38598e-003
850	 1.2806250000e+002	 4.30010e-003
851	 1.2812500000e+002	 5.35214e-003
852	 1.2818750000e+002	 6.36883e-003
853	 1.2825000000e+002	 8.01436e-003
854	 1.2831250000e+002	 6.78206e-003
855	 1.2837500000e+002	 3.40894e-003
856	 1.2843750000e+002	 3.99380e-003
857	 1.2850000000e+002	 5.93320e-003
858	 1.2856250000e+002	 6.65986e-003
859	 1.2862500000e+002	 2.99995e-003
860	 1.2868750000e+002	 1.68638e-003
861	 1.2875000000e+002	 3.40555e-003
862	 1.2881250000e+002	 6.87222e-003
863	 1.2887500000e+002	 9.72801e-003
864	 1.2893750000e+002	 7.30454e-003
865	 1.2900000000e+002	 3.33543e-003
866	 1.2906250000e+002	 1.46776e-003
867	 1.2912500000e+002	 2.86820e-003
868	 1.2918750000e+002	 9.56062e-003
869	 1.2925000000e+002	 1.07047e-002
870	 1.2931250000e+002	 4.99280e-003
871	 1.2937500000e+002	 3.95437e-003
872	 1.2943750000e+002	 3.48336e-003
873	 1.2950000000e+002	 4.76332e-003
874	 1.2956250000e+002	 7.49625e-003
875	 1.2962500000e+002	 6.55220e-003
876	 1.2968750000e+002	 2.62432e-003
877	 1.2975000000e+002	 3.33358e-003
878	 1.2981250000e+002	 4.29324e-003
879	 1.2987500000e+002	 2.05356e-003
880	 1.2993750000e+002	 3.61392e-003
881	 1.3000000000e+002	 3.88667e-003
882	 1.3006250000e+002	 3.05832e-003
883	 1.3012500000e+002	 3.89716e-003
884	 1.3018750000e+002	 5.68874e-003
885	 1.3025000000e+002	 4.15830e-003
886	 1.3031250000e+002	 4.65234e-003
887	 1.3037500000e+002	 8.41208e-003
888	 1.3043750000e+002	 6.24638e-003
889	 1.3050000000e+002	 4.08288e-003
890	 1.3056250000e+002	 2.56487e-003
891	 1.3062500000e+002	 2.65605e-003
892	 1.3068750000e+002	 2.11980e-003
893	 1.3075000000e+002	 2.09542e-003
894	 1.3081250000e+002	 3.01720e-003
895	 1.3087500000e+002	 3.80610e-003
896	 1.3093750000e+002	 4.05819e-003
897	 1.3100000000e+002	 4.87571e-003
898	 1.3106250000e+002	 3.78279e-003
899	 1.3112500000e+002	 4.37404e-003
900	 1.3118750000e+002	 2.90363e-003
901	 1.3125000000e+002	 2.99450e-003
902	 1.3131250000e+002	 3.34626e-003
903	 1.3137500000e+002	 3.16124e-003
904	 1.3143750000e+002	 3.23048e-003
905	 1.3150000000e+002	 4.97327e-003
906	 1.3156250000e+002	 5.71963e-003
907	 1.3162500000e+002	 5.36764e-003
908	 1.3168750000e+002	 4.58184e-003
909	 1.3175000000e+002	 2.62844e-003
910	 1.3181250000e+002	 3.31870e-003
911	 1.3187500000e+002	 2.50099e-003
912	 1.3193750000e+002	 2.83574e-003
913	 1.3200000000e+002	 7.28375e-003
914	 1.3206250000e+002	 6.36457e-003
915	 1.3212500000e+002	 6.51364e-003
916	 1.3218750000e+002	 8.46292e-003
917	 1.3225000000e+002	 5.08445e-003
918	 1.3231250000e+002	 4.32133e-003
919	 1.3237500000e+002	 4.05705e-003
920	 1.3243750000e+002	 8.09536e-003
921	 1.3250000000e+002	 6.69522e-003
922	 1.3256250000e+002	 1.97734e-003
923	 1.3262500000e+002	 1.16774e-003
924	 1.3268750000e+002	 1.90982e-003
925	 1.3275000000e+002	 4.00001e-003
926	 1.3281250000e+002	 3.73615e-003
927	 1.3287500000e+002	 4.44373e-003
928	 1.3293750000e+002	 5.57630e-003
929	 1.3300000000e+002	 3.95054e-003
930	 1.3306250000e+002	 3.19765e-003
931	 1.3312500000e+002	 6.49441e-003
932	 1.3318750000e+002	 6.40081e-003
933	 1.3325000000e+002	 7.68213e-003
934	 1.3331250000e+002	 4.70614e-003
935	 1.3337500000e+002	 3.85943e-003
936	 1.3343750000e+002	 3.64459e-003
937	 1.3350000000e+002	 2.95784e-003
938	 1.3356250000e+002	 4.76668e-003
939	 1.3362500000e+002	 4.31658e-003
940	 1.3368750000e+002	 4.91769e-003
941	 1.3375000000e+002	 7.69298e-003
942	 1.3381250000e+002	 9.71040e-003
943	 1.3387500000e+002	 7.09717e-003
944	 1.3393750000e+002	 3.33290e-003
945	 1.3400000000e+002	 2.95262e-003
946	 1.3406250000e+002	 3.46362e-003
947	 1.3412500000e+002	 4.78681e-003
948	 1.3418750000e+002	 3.96513e-003
949	 1.3425000000e+002	 7.57922e-003
950	 1.3431250000e+002	 6.77778e-003
951	 1.3437500000e+002	 8.75957e-003
952	 1.3443750000e+002	 1.04612e-002
953	 1.3450000000e+002	 4.15175e-003
954	 1.3456250000e+002	 2.63464e-003
955	 1.3462500000e+002	 5.13909e-003
956	 1.3468750000e+002	 9.69424e-003
957	 1.3475000000e+002	 6.71817e-003
958	 1.3481250000e+002	 3.65048e-003
959	 1.3487500000e+002	 5.07079e-003
960	 1.3493750000e+002	 5.43098e-003
961	 1.3500000000e+002	 5.23305e-003
962	 1.3506250000e+002	 4.21580e-003
963	 1.3512500000e+002	 5.83944e-003
964	 1.3518750000e+002	 5.03534e-003
965	 1.3525000000e+002	 3.73325e-003
966	 1.3531250000e+002	 4.46370e-003
967	 1.3537500000e+002	 7.48716e-003
968	 1.3543750000e+002	 1.37066e-002
969	 1.3550000000e+002	 6.63778e-003
970	 1.3556250000e+002	 2.63662e-003
971	 1.3562500000e+002	 2.78017e-003
972	 1.3568750000e+002	 5.86108e-003
973	 1.3575000000e+002	 5.85334e-003
974	 1.3581250000e+002	 6.02331e-003
975	 1.3587500000e+002	 5.78198e-003
976	 1.3593750000e+002	 3.09240e-003
977	 1.3600000000e+002	 2.78871e-003
978	 1.3606250000e+002	 3.40539e-003
979	 1.3612500000e+002	 4.87360e-003
980	 1.3618750000e+002	 8.72377e-003
981	 1.3625000000e+002	 5.98467e-003
982	 1.3631250000e+002	 2.95576e-003
983	 1.3637500000e+002	 3.00099e-003
984	 1.3643750000e+002	 5.53238e-003
985	 1.3650000000e+002	 5.17647e-003
986	 1.3656250000e+002	 4.32337e-003
987	 1.3662500000e+002	 3.61292e-003
988	 1.3668750000e+002	 4.10080e-003
989	 1.3675000000e+002	 3.55832e-003
990	 1.3681250000e+002	 3.22266e-003
991	 1.3687500000e+002	 6.43693e-003
992	 1.3693750000e+002	 7.15524e-003
993	 1.3700000000e+002	 8.86768e-003
994	 1.3706250000e+002	 5.85485e-003
995	 1.3712500000e+002	 9.34788e-003
996	 1.3718750000e+002	 6.39260e-003
997	 1.3725000000e+002	 4.05878e-003
998	 1.3731250000e+002	 7.90265e-003
999	 1.3737500000e+002	 1.07488e-002
1000	 1.3743750000e+002	 5.47295e-003
1001	 1.3750000000e+002	 4.78494e-003
1002	 1.3756250000e+002	 4.93368e-003
1003	 1.3762500000e+002	 7.38635e-003
1004	 1.3768750000e+002	 1.21449e-002
1005	 1.3775000000e+002	 8.88650e-003
1006	 1.3781250000e+002	 4.51911e-003
1007	 1.3787500000e+002	 5.96350e-003
1008	 1.3793750000e+002	 4.89539e-003
1009	 1.3800000000e+002	 4.99927e-003
1010	 1.3806250000e+002	 8.99934e-003
1011	 1.3812500000e+002	 1.23164e-002
1012	 1.3818750000e+002	 1.14007e-002
1013	 1.3825000000e+002	 4.80253e-003
1014	 1.3831250000e+002	 2.35124e-003
1015	 1.3837500000e+002	 2.38837e-003
1016	 1.3843750000e+002	 4.69136e-003
1017	 1.3850000000e+002	 1.07540e-002
1018	 1.3856250000e+002	 7.60845e-003
1019	 1.3862500000e+002	 6.81181e-003
1020	 1.3868750000e+002	 9.02028e-003
1021	 1.3875000000e+002	 8.58174e-003
1022	 1.3881250000e+002	 8.20197e-003
1023	 1.3887500000e+002	 8.59332e-003
1024	 1.3893750000e+002	 6.75301e-003
1025	 1.3900000000e+002	 1.32940e-002
1026	 1.3906250000e+002	 1.49170e-002
1027	 1.3912500000e+002	 4.96396e-003
1028	 1.3918750000e+002	 5.37833e-003
1029	 1.3925000000e+002	 1.15357e-002
1030	 1.3931250000e+002	 1.44030e-002
1031	 1.3937500000e+002	 1.05771e-002
1032	 1.3943750000e+002	 9.70065e-003
1033	 1.3950000000e+002	 7.67065e-003
1034	 1.3956250000e+002	 5.48356e-003
1035	 1.3962500000e+002	 3.00451e-003
1036	 1.3968750000e+002	 6.31602e-003
1037	 1.3975000000e+002	 8.96253e-003
1038	 1.3981250000e+002	 4.84298e-003
1039	 1.3987500000e+002	 4.96903e-003
1040	 1.3993750000e+002	 5.77390e-003
1041	 1.4000000000e+002	 1.00438e-002
1042	 1.4006250000e+002	 1.18714e-002
1043	 1.4012500000e+002	 9.04820e-003
1044	 1.4018750000e+002	 6.09621e-003
1045	 1.4025000000e+002	 6.78825e-003
1046	 1.4031250000e+002	 9.42079e-003
1047	 1.4037500000e+002	 1.02852e-002
1048	 1.4043750000e+002	 5.51326e-003
1049	 1.4050000000e+002	 4.59039e-003
1050	 1.4056250000e+002	 4.94156e-003
1051	 1.4062500000e+002	 1.17708e-002
1052	 1.4068750000e+002	 1.24655e-002
1053	 1.4075000000e+002	 1.42301e-002
1054	 1.4081250000e+002	 1.41812e-002
1055	 1.4087500000e+002	 1.00204e-002
1056	 1.4093750000e+002	 8.77991e-003
1057	 1.4100000000e+002	 8.25353e-003
1058	 1.4106250000e+002	 8.21749e-003
1059	 1.4112500000e+002	 5.02463e-003
1060	 1.4118750000e+002	 4.36861e-003
1061	 1.4125000000e+002	 5.10447e-003
1062	 1.4131250000e+002	 6.04408e-003
1063	 1.4137500000e+002	 6.87060e-003
1064	 1.4143750000e+002	 6.70332e-003
1065	 1.4150000000e+002	 5.56479e-003
1066	 1.4156250000e+002	 7.50763e-003
1067	 1.4162500000e+002	 7.93520e-003
1068	 1.4168750000e+002	 9.33337e-003
1069	 1.4175000000e+002	 6.91744e-003
1070	 1.4181250000e+002	 8.35501e-003
1071	 1.4187500000e+002	 1.57235e-002
1072	 1.4193750000e+002	 8.78456e-003
1073	 1.4200000000e+002	 4.41552e-003
1074	 1.4206250000e+002	 7.00758e-003
1075	 1.4212500000e+002	 1.21711e-002
1076	 1.4218750000e+002	 8.41974e-003
1077	 1.4225000000e+002	 7.21721e-003
1078	 1.4231250000e+002	 6.60768e-003
1079	 1.4237500000e+002	 7.74668e-003
1080	 1.4243750000e+002	 3.11253e-003
1081	 1.4250000000e+002	 1.08508e-002
1082	 1.4256250000e+002	 1.72983e-002
1083	 1.4262500000e+002	 5.66070e-003
1084	 1.4268750000e+002	 3.35424e-003
1085	 1.4275000000e+002	 1.51913e-003
1086	 1.4281250000e+002	 1.02698e-003
1087	 1.4287500000e+002	 3.44888e-003
1088	 1.4293750000e+002	 8.82412e-003
1089	 1.4300000000e+002	 1.20930e-002
1090	 1.4306250000e+002	 1.27281e-002
1091	 1.4312500000e+002	 8.96421e-003
1092	 1.4318750000e+002	 6.39212e-003
1093	 1.4325000000e+002	 8.20589e-003
1094	 1.4331250000e+002	 1.47708e-002
1095	 1.4337500000e+002	 8.57946e-003
1096	 1.4343750000e+002	 5.70804e-003
1097	 1.4350000000e+002	 1.06080e-002
1098	 1.4356250000e+002	 9.64165e-003
1099	 1.4362500000e+002	 1.30072e-002
1100	 1.4368750000e+002	 9.71401e-003
1101	 1.4375000000e+002	 1.01209e-002
1102	 1.4381250000e+002	 9.84185e-003
1103	 1.4387500000e+002	 1.48733e-002
1104	 1.4393750000e+002	 1.71833e-002
1105	 1.4400000000e+002	 1.41966e-002
1106	 1.4406250000e+002	 9.45671e-003
1107	 1.4412500000e+002	 8.55142e-003
1108	 1.4418750000e+002	 9.32810e-003
1109	 1.4425000000e+002	 4.90427e-003
1110	 1.4431250000e+002	 6.63084e-003
1111	 1.4437500000e+002	 7.41568e-003
1112	 1.4443750000e+002	 5.55985e-003
1113	 1.4450000000e+002	 4.07791e-003
1114	 1.4456250000e+002	 5.45445e-003
1115	 1.4462500000e+002	 1.08110e-002
1116	 1.4468750000e+002	 7.39499e-003
1117	 1.4475000000e+002	 1.12536e-002
1118	 1.4481250000e+002	 1.33853e-002
1119	 1.4487500000e+002	 7.80218e-003
1120	 1.4493750000e+002	 8.32544e-003
1121	 1.4500000000e+002	 6.85496e-003
1122	 1.4506250000e+002	 4.13558e-003
1123	 1.4512500000e+002	 1.00498e-002
1124	 1.4518750000e+002	 1.07834e-002
1125	 1.4525000000e+002	 6.60679e-003
1126	 1.4531250000e+002	 5.24431e-003
1127	 1.4537500000e+002	 2.84928e-003
1128	 1.4543750000e+002	 5.13616e-003
1129	 1.4550000000e+002	 1.45215e-002
1130	 1.4556250000e+002	 2.62954e-002
1131	 1.4562500000e+002	 2.41023e-002
1132	 1.4568750000e+002	 1.72203e-002
1133	 1.4575000000e+002	 1.28886e-002
1134	 1.4581250000e+002	 2.52805e-002
1135	 1.4587500000e+002	 2.12989e-002
1136	 1.4593750000e+002	 1.58908e-002
1137	 1.4600000000e+002	 1.89691e-002
1138	 1.4606250000e+002	 1.03048e-002
1139	 1.4612500000e+002	 1.11924e-002
1140	 1.4618750000e+002	 9.85422e-003
1141	 1.4625000000e+002	 1.03307e-002
1142	 1.4631250000e+002	 2.02597e-002
1143	 1.4637500000e+002	 1.70521e-002
1144	 1.4643750000e+002	 1.35448e-002
1145	 1.4650000000e+002	 2.81249e-002
1146	 1.4656250000e+002	 3.48968e-002
1147	 1.4662500000e+002	 2.06224e-002
1148	 1.4668750000e+002	 1.08521e-002
1149	 1.4675000000e+002	 1.25655e-002
1150	 1.4681250000e+002	 1.29248e-002
1151	 1.4687500000e+002	 2.06263e-002
1152	 1.4693750000e+002	 1.43041e-002
1153	 1.4700000000e+002	 8.13147e-003
1154	 1.4706250000e+002	 1.57003e-002
1155	 1.4712500000e+002	 1.29641e-002
1156	 1.4718750000e+002	 9.60476e-003
1157	 1.4725000000e+002	 1.51650e-002
1158	 1.4731250000e+002	 1.75750e-002
1159	 1.4737500000e+002	 1.62409e-002
1160	 1.4743750000e+002	 1.97748e-002
1161	 1.4750000000e+002	 3.12159e-002
1162	 1.4756250000e+002	 2.34087e-002
1163	 1.4762500000e+002	 4.27661e-002
1164	 1.4768750000e+002	 3.24091e-002
1165	 1.4775000000e+002	 1.16041e-002
1166	 1.4781250000e+002	 1.05371e-002
1167	 1.4787500000e+002	 1.38361e-002
1168	 1.4793750000e+002	 1.37894e-002
1169	 1.4800000000e+002	 7.84000e-003
1170	 1.4806250000e+002	 2.15721e-002
1171	 1.4812500000e+002	 1.53472e-002
1172	 1.4818750000e+002	 1.14893e-002
1173	 1.4825000000e+002	 1.91373e-002
1174	 1.4831250000e+002	 1.19448e-002
1175	 1.4837500000e+002	 9.45192e-003
1176	 1.4843750000e+002	 1.13479e-002
1177	 1.4850000000e+002	 1.15915e-002
1178	 1.4856250000e+002	 1.30090e-002
1179	 1.4862500000e+002	 1.37769e-002
1180	 1.4868750000e+002	 6.25170e-003
1181	 1.4875000000e+002	 1.21830e-002
1182	 1.4881250000e+002	 1.43334e-002
1183	 1.4887500000e+002	 2.44637e-002
1184	 1.4893750000e+002	 3.56222e-002
1185	 1.4900000000e+002	 3.25406e-002
1186	 1.4906250000e+002	 2.39384e-002
1187	 1.4912500000e+002	 2.07772e-002
1188	 1.4918750000e+002	 2.04093e-002
1189	 1.4925000000e+002	 1.86372e-002
1190	 1.4931250000e+002	 2.64232e-002
1191	 1.4937500000e+002	 2.49063e-002
1192	 1.4943750000e+002	 2.56702e-002
1193	 1.4950000000e+002	 1.99686e-002
1194	 1.4956250000e+002	 2.23811e-002
1195	 1.4962500000e+002	 1.58200e-002
1196	 1.4968750000e+002	 7.56133e-003
1197	 1.4975000000e+002	 9.99405e-003
1198	 1.4981250000e+002	 3.10193e-002
1199	 1.4987500000e+002	 2.59875e-002
1200	 1.4993750000e+002	 1.23707e-002
1201	 1.5000000000e+002	 1.76817e-002
1202	 1.5006250000e+002	 1.92747e-002
1203	 1.5012500000e+002	 1.48075e-002
1204	 1.5018750000e+002	 1.06026e-002
1205	 1.5025000000e+002	 2.18311e-002
1206	 1.5031250000e+002	 1.40327e-002
1207	 1.5037500000e+002	 9.85349e-003
1208	 1.5043750000e+002	 1.61037e-002
1209	 1.5050000000e+002	 3.09309e-002
1210	 1.5056250000e+002	 2.91017e-002
1211	 1.5062500000e+002	 2.68402e-002
1212	 1.5068750000e+002	 2.04810e-002
1213	 1.5075000000e+002	 1.59074e-002
1214	 1.5081250000e+002	 2.14905e-002
1215	 1.5087500000e+002	 3.83255e-002
1216	 1.5093750000e+002	 3.48507e-002
1217	 1.5100000000e+002	 2.70461e-002
1218	 1.5106250000e+002	 4.29496e-002
1219	 1.5112500000e+002	 3.34195e-002
1220	 1.5118750000e+002	 2.43593e-002
1221	 1.5125000000e+002	 1.57237e-002
1222	 1.5131250000e+002	 1.95895e-002
1223	 1.5137500000e+002	 2.34530e-002
1224	 1.5143750000e+002	 2.49243e-002
1225	 1.5150000000e+002	 2.85200e-002
1226	 1.5156250000e+002	 3.58767e-002
1227	 1.5162500000e+002	 2.88362e-002
1228	 1.5168750000e+002	 4.10514e-002
1229	 1.5175000000e+002	 3.04827e-002
1230	 1.5181250000e+002	 3.99290e-002
1231	 1.5187500000e+002	 2.44310e-002
1232	 1.5193750000e+002	 1.90159e-002
1233	 1.5200000000e+002	 1.80561e-002
1234	 1.5206250000e+002	 1.97989e-002
1235	 1.5212500000e+002	 2.86946e-002
1236	 1.5218750000e+002	 3.10804e-002
1237	 1.5225000000e+002	 2.81837e-002
1238	 1.5231250000e+002	 2.00462e-002
1239	 1.5237500000e+002	 1.79304e-002
1240	 1.5243750000e+002	 2.24672e-002
1241	 1.5250000000e+002	 2.72904e-002
1242	 1.5256250000e+002	 1.87417e-002
1243	 1.5262500000e+002	 2.32361e-002
1244	 1.5268750000e+002	 1.75801e-002
1245	 1.5275000000e+002	 2.73573e-002
1246	 1.5281250000e+002	 4.53806e-002
1247	 1.5287500000e+002	 7.20683e-002
1248	 1.5293750000e+002	 6.74610e-002
1249	 1.5300000000e+002	 7.65115e-002
1250	 1.5306250000e+002	 4.97728e-002
1251	 1.5312500000e+002	 3.03420e-002
1252	 1.5318750000e+002	 2.72850e-002
1253	 1.5325000000e+002	 3.21594e-002
1254	 1.5331250000e+002	 5.82606e-002
1255	 1.5337500000e+002	 4.31002e-002
1256	 1.5343750000e+002	 2.66364e-002
1257	 1.5350000000e+002	 1.38823e-002
1258	 1.5356250000e+002	 2.02497e-002
1259	 1.5362500000e+002	 3.13617e-002
1260	 1.5368750000e+002	 1.58815e-002
1261	 1.5375000000e+002	 3.52062e-002
1262	 1.5381250000e+002	 6.01509e-002
1263	 1.5387500000e+002	 7.35478e-002
1264	 1.5393750000e+002	 6.49385e-002
1265	 1.5400000000e+002	 5.55094e-002
1266	 1.5406250000e+002	 3.70821e-002
1267	 1.5412500000e+002	 2.98252e-002
1268	 1.5418750000e+002	 1.96316e-002
1269	 1.5425000000e+002	 3.60171e-002
1270	 1.5431250000e+002	 5.78877e-002
1271	 1.5437500000e+002	 7.75566e-002
1272	 1.5443750000e+002	 9.19995e-002
1273	 1.5450000000e+002	 5.08654e-002
1274	 1.5456250000e+002	 6.11600e-002
1275	 1.5462500000e+002	 9.67527e-002
1276	 1.5468750000e+002	 5.46386e-002
1277	 1.5475000000e+002	 1.97616e-002
1278	 1.5481250000e+002	 2.63515e-002
1279	 1.5487500000e+002	 3.87461e-002
1280	 1.5493750000e+002	 5.23731e-002
1281	 1.5500000000e+002	 5.44451e-002
1282	 1.5506250000e+002	 7.48277e-002
1283	 1.5512500000e+002	 8.89555e-002
1284	 1.5518750000e+002	 1.17247e-001
1285	 1.5525000000e+002	 7.75211e-002
1286	 1.5531250000e+002	 9.05239e-002
1287	 1.5537500000e+002	 1.87682e-001
1288	 1.5543750000e+002	 1.65202e-001
1289	 1.5550000000e+002	 8.63302e-002
1290	 1.5556250000e+002	 1.60811e-001
1291	 1.5562500000e+002	 1.20767e-001
1292	 1.5568750000e+002	 9.19976e-002
1293	 1.5575000000e+002	 1.02028e-001
1294	 1.5581250000e+002	 1.89742e-001
1295	 1.5587500000e+002	 1.34639e-001
1296	 1.5593750000e+002	 3.55973e-002
1297	 1.5600000000e+002	 4.27156e-002
1298	 1.5606250000e+002	 8.08011e-002
1299	 1.5612500000e+002	 1.24425e-001
1300	 1.5618750000e+002	 8.86877e-002
1301	 1.5625000000e+002	 5.62373e-002
1302	 1.5631250000e+002	 5.07625e-002
1303	 1.5637500000e+002	 1.01929e-001
1304	 1.5643750000e+002	 9.78356e-002
1305	 1.5650000000e+002	 3.47402e-002
1306	 1.5656250000e+002	 2.74481e-002
1307	 1.5662500000e+002	 6.82849e-002
1308	 1.5668750000e+002	 1.07746e-001
1309	 1.5675000000e+002	 1.55027e-001
1310	 1.5681250000e+002	 1.19505e-001
1311	 1.5687500000e+002	 9.30006e-002
1312	 1.5693750000e+002	 1.37411e-001
1313	 1.5700000000e+002	 1.79879e-001
1314	 1.5706250000e+002	 8.35440e-002
1315	 1.5712500000e+002	 7.56198e-002
1316	 1.5718750000e+002	 9.19450e-002
1317	 1.5725000000e+002	 6.37031e-002
1318	 1.5731250000e+002	 5.81833e-002
1319	 1.5737500000e+002	 6.18049e-002
1320	 1.5743750000e+002	 8.66306e-002
1321	 1.5750000000e+002	 1.30524e-001
1322	 1.5756250000e+002	 1.65574e-001
1323	 1.5762500000e+002	 1.57524e-001
1324	 1.5768750000e+002	 1.35729e-001
1325	 1.5775000000e+002	 1.21302e-001
1326	 1.5781250000e+002	 1.39139e-001
1327	 1.5787500000e+002	 1.53459e-001
1328	 1.5793750000e+002	 1.84977e-001
1329	 1.5800000000e+002	 1.34157e-001
1330	 1.5806250000e+002	 7.25201e-002
1331	 1.5812500000e+002	 1.00734e-001
1332	 1.5818750000e+002	 1.72894e-001
1333	 1.5825000000e+002	 1.53045e-001
1334	 1.5831250000e+002	 1.74865e-001
1335	 1.5837500000e+002	 1.67679e-001
1336	 1.5843750000e+002	 1.02393e-001
1337	 1.5850000000e+002	 1.43391e-001
1338	 1.5856250000e+002	 1.68240e-001
1339	 1.5862500000e+002	 8.86715e-002
1340	 1.5868750000e+002	 1.31863e-001
1341	 1.5875000000e+002	 2.17369e-001
1342	 1.5881250000e+002	 2.57277e-001
1343	 1.5887500000e+002	 2.37542e-001
1344	 1.5893750000e+002	 2.22382e-001
1345	 1.5900000000e+002	 2.94215e-001
1346	 1.5906250000e+002	 3.85305e-001
1347	 1.5912500000e+002	 3.02571e-001
1348	 1.5918750000e+002	 2.14302e-001
1349	 1.5925000000e+002	 2.10052e-001
1350	 1.5931250000e+002	 2.62429e-001
1351	 1.5937500000e+002	 2.06316e-001
1352	 1.5943750000e+002	 2.73345e-001
1353	 1.5950000000e+002	 1.92384e-001
1354	 1.5956250000e+002	 8.48682e-002
1355	 1.5962500000e+002	 1.55143e-001
1356	 1.5968750000e+002	 3.79530e-001
1357	 1.5975000000e+002	 2.33766e-001
1358	 1.5981250000e+002	 7.14009e-002
1359	 1.5987500000e+002	 7.25741e-002
1360	 1.5993750000e+002	 1.15374e-001
1361	 1.6000000000e+002	 1.63245e-001
1362	 1.6006250000e+002	 2.69175e-001
1363	 1.6012500000e+002	 6.25980e-001
1364	 1.6018750000e+002	 6.51396e-001
1365	 1.6025000000e+002	 3.72144e-001
1366	 1.6031250000e+002	 4.36591e-001
1367	 1.6037500000e+002	 5.50932e-001
1368	 1.6043750000e+002	 2.74165e-001
1369	 1.6050000000e+002	 1.77597e-001
1370	 1.6056250000e+002	 2.20718e-001
1371	 1.6062500000e+002	 2.90871e-001
1372	 1.6068750000e+002	 2.06575e-001
1373	 1.6075000000e+002	 2.18208e-001
1374	 1.6081250000e+002	 4.42899e-001
1375	 1.6087500000e+002	 4.66290e-001
1376	 1.6093750000e+002	 4.15965e-001
1377	 1.6100000000e+002	 4.53495e-001
1378	 1.6106250000e+002	 2.14630e-001
1379	 1.6112500000e+002	 3.14971e-001
1380	 1.6118750000e+002	 3.80264e-001
1381	 1.6125000000e+002	 1.88633e-001
1382	 1.6131250000e+002	 1.41652e-001
1383	 1.6137500000e+002	 3.25705e-001
1384	 1.6143750000e+002	 7.26519e-001
1385	 1.6150000000e+002	 6.06949e-001
1386	 1.6156250000e+002	 2.24061e-001
1387	 1.6162500000e+002	 2.67682e-001
1388	 1.6168750000e+002	 3.44132e-001
1389	 1.6175000000e+002	 2.07267e-001
1390	 1.6181250000e+002	 1.66873e-001
1391	 1.6187500000e+002	 2.77942e-001
1392	 1.6193750000e+002	 4.66877e-001
1393	 1.6200000000e+002	 4.30490e-001
1394	 1.6206250000e+002	 1.77539e-001
1395	 1.6212500000e+002	 2.96992e-001
1396	 1.6218750000e+002	 2.72455e-001
1397	 1.6225000000e+002	 5.18334e-001
1398	 1.6231250000e+002	 6.21269e-001
1399	 1.6237500000e+002	 4.05052e-001
1400	 1.6243750000e+002	 2.43835e-001
1401	 1.6250000000e+002	 1.97781e-001
1402	 1.6256250000e+002	 3.51317e-001
1403	 1.6262500000e+002	 4.08663e-001
1404	 1.6268750000e+002	 1.93546e-001
1405	 1.6275000000e+002	 1.75723e-001
1406	 1.6281250000e+002	 1.40640e-001
1407	 1.6287500000e+002	 6.99003e-002
1408	 1.6293750000e+002	 1.99895e-001
1409	 1.6300000000e+002	 3.44197e-001
1410	 1.6306250000e+002	 3.34037e-001
1411	 1.6312500000e+002	 2.41270e-001
1412	 1.6318750000e+002	 3.76498e-001
1413	 1.6325000000e+002	 1.93463e-001
1414	 1.6331250000e+002	 2.21880e-001
1415	 1.6337500000e+002	 2.96519e-001
1416	 1.6343750000e+002	 2.74631e-001
1417	 1.6350000000e+002	 1.78455e-001
1418	 1.6356250000e+002	 8.63741e-002
1419	 1.6362500000e+002	 1.00628e-001
1420	 1.6368750000e+002	 1.66215e-001
1421	 1.6375000000e+002	 2.44174e-001
1422	 1.6381250000e+002	 3.10973e-001
1423	 1.6387500000e+002	 2.06373e-001
1424	 1.6393750000e+002	 1.35596e-001
1425	 1.6400000000e+002	 2.51762e-001
1426	 1.6406250000e+002	 2.78803e-001
1427	 1.6412500000e+002	 2.23016e-001
1428	 1.6418750000e+002	 1.37210e-001
1429	 1.6425000000e+002	 1.87432e-001
1430	 1.6431250000e+002	 2.35466e-001
1431	 1.6437500000e+002	 1.42013e-001
1432	 1.6443750000e+002	 1.08967e-001
1433	 1.6450000000e+002	 1.30989e-001
1434	 1.6456250000e+002	 1.33688e-001
1435	 1.6462500000e+002	 2.49736e-001
1436	 1.6468750000e+002	 2.24826e-001
1437	 1.6475000000e+002	 1.23238e-001
1438	 1.6481250000e+002	 1.11293e-001
1439	 1.6487500000e+002	 1.11982e-001
1440	 1.6493750000e+002	 1.06336e-001
1441	 1.6500000000e+002	 9.65178e-002
1442	 1.6506250000e+002	 1.33068e-001
1443	 1.6512500000e+002	 1.34702e-001
1444	 1.6518750000e+002	 1.01891e-001
1445	 1.6525000000e+002	 1.03137e-001
1446	 1.6531250000e+002	 1.39061e-001
1447	 1.6537500000e+002	 1.88665e-001
1448	 1.6543750000e+002	 1.43435e-001
1449	 1.6550000000e+002	 1.09333e-001
1450	 1.6556250000e+002	 6.39451e-002
1451	 1.6562500000e+002	 9.07601e-002
1452	 1.6568750000e+002	 6.01916e-002
1453	 1.6575000000e+002	 4.19693e-002
1454	 1.6581250000e+002	 6.24985e-002
1455	 1.6587500000e+002	 9.05515e-002
1456	 1.6593750000e+002	 3.76510e-002
1457	 1.6600000000e+002	 6.09361e-002
1458	 1.6606250000e+002	 7.20999e-002
1459	 1.6612500000e+002	 1.17698e-001
1460	 1.6618750000e+002	 8.16397e-002
1461	 1.6625000000e+002	 1.08266e-001
1462	 1.6631250000e+002	 1.84801e-001
1463	 1.6637500000e+002	 1.09095e-001
1464	 1.6643750000e+002	 9.80338e-002
1465	 1.6650000000e+002	 6.50152e-002
1466	 1.6656250000e+002	 5.22325e-002
1467	 1.6662500000e+002	 7.05624e-002
1468	 1.6668750000e+002	 6.68152e-002
1469	 1.6675000000e+002	 7.43599e-002
1470	 1.6681250000e+002	 7.09007e-002
1471	 1.6687500000e+002	 7.70438e-002
1472	 1.6693750000e+002	 5.55698e-002
1473	 1.6700000000e+002	 6.85931e-002
1474	 1.6706250000e+002	 6.74460e-002
1475	 1.6712500000e+002	 5.30574e-002
1476	 1.6718750000e+002	 6.45773e-002
1477	 1.6725000000e+002	 6.41198e-002
1478	 1.6731250000e+002	 6.63928e-002
1479	 1.6737500000e+002	 6.26784e-002
1480	 1.6743750000e+002	 4.78017e-002
1481	 1.6750000000e+002	 6.44013e-002
1482	 1.6756250000e+002	 4.79332e-002
1483	 1.6762500000e+002	 2.55654e-002
1484	 1.6768750000e+002	 3.33551e-002
1485	 1.6775000000e+002	 5.58365e-002
1486	 1.6781250000e+002	 4.67635e-002
1487	 1.6787500000e+002	 5.04727e-002
1488	 1.6793750000e+002	 5.98437e-002
1489	 1.6800000000e+002	 5.45729e-002
1490	 1.6806250000e+002	 6.51877e-002
1491	 1.6812500000e+002	 6.15517e-002
1492	 1.6818750000e+002	 7.64193e-002
1493	 1.6825000000e+002	 6.80047e-002
1494	 1.6831250000e+002	 4.24442e-002
1495	 1.6837500000e+002	 4.16476e-002
1496	 1.6843750000e+002	 4.98744e-002
1497	 1.6850000000e+002	 8.16810e-002
1498	 1.6856250000e+002	 4.89702e-002
1499	 1.6862500000e+002	 5.66738e-002
1500	 1.6868750000e+002	 4.11320e-002
1501	 1.6875000000e+002	 4.44820e-002
1502	 1.6881250000e+002	 5.22012e-002
1503	 1.6887500000e+002	 6.23950e-002
1504	 1.6893750000e+002	 9.74857e-002
1505	 1.6900000000e+002	 5.83983e-002
1506	 1.6906250000e+002	 3.99973e-002
1507	 1.6912500000e+002	 5.12434e-002
1508	 1.6918750000e+002	 5.01102e-002
1509	 1.6925000000e+002	 8.24889e-002
1510	 1.6931250000e+002	 1.17953e-001
1511	 1.6937500000e+002	 7.31672e-002
1512	 1.6943750000e+002	 3.25024e-002
1513	 1.6950000000e+002	 4.70484e-002
1514	 1.6956250000e+002	 5.72462e-002
1515	 1.6962500000e+002	 5.76319e-002
1516	 1.6968750000e+002	 3.44828e-002
1517	 1.6975000000e+002	 3.76576e-002
1518	 1.6981250000e+002	 5.80843e-002
1519	 1.6987500000e+002	 1.00853e-001
1520	 1.6993750000e+002	 6.53458e-002
1521	 1.7000000000e+002	 4.21632e-002
1522	 1.7006250000e+002	 3.00581e-002
1523	 1.7012500000e+002	 3.94431e-002
1524	 1.7018750000e+002	 3.80872e-002
1525	 1.7025000000e+002	 2.99318e-002
1526	 1.7031250000e+002	 2.03934e-002
1527	 1.7037500000e+002	 1.23498e-002
1528	 1.7043750000e+002	 2.51605e-002
1529	 1.7050000000e+002	 3.90099e-002
1530	 1.7056250000e+002	 3.77763e-002
1531	 1.7062500000e+002	 6.04574e-002
1532	 1.7068750000e+002	 4.32747e-002
1533	 1.7075000000e+002	 2.88173e-002
1534	 1.7081250000e+002	 2.30453e-002
1535	 1.7087500000e+002	 1.99432e-002
1536	 1.7093750000e+002	 2.79512e-002
1537	 1.7100000000e+002	 2.18928e-002
1538	 1.7106250000e+002	 2.41224e-002
1539	 1.7112500000e+002	 4.27270e-002
1540	 1.7118750000e+002	 6.61370e-002
1541	 1.7125000000e+002	 6.61904e-002
1542	 1.7131250000e+002	 3.51715e-002
1543	 1.7137500000e+002	 2.69169e-002
1544	 1.7143750000e+002	 2.12119e-002
1545	 1.7150000000e+002	 1.14501e-002
1546	 1.7156250000e+002	 1.58125e-002
1547	 1.7162500000e+002	 2.11969e-002
1548	 1.7168750000e+002	 3.05405e-002
1549	 1.7175000000e+002	 2.27210e-002
1550	 1.7181250000e+002	 3.03430e-002
1551	 1.7187500000e+002	 3.91292e-002
1552	 1.7193750000e+002	 4.09499e-002
1553	 1.7200000000e+002	 5.00883e-002
1554	 1.7206250000e+002	 3.20607e-002
1555	 1.7212500000e+002	 2.60071e-002
1556	 1.7218750000e+002	 4.44779e-002
1557	 1.7225000000e+002	 6.03696e-002
1558	 1.7231250000e+002	 3.35945e-002
1559	 1.7237500000e+002	 3.68612e-002
1560	 1.7243750000e+002	 2.60539e-002
1561	 1.7250000000e+002	 1.32494e-002
1562	 1.7256250000e+002	 1.95661e-002
1563	 1.7262500000e+002	 2.84908e-002
1564	 1.7268750000e+002	 2.64717e-002
1565	 1.7275000000e+002	 2.66649e-002
1566	 1.7281250000e+002	 3.21059e-002
1567	 1.7287500000e+002	 3.14283e-002
1568	 1.7293750000e+002	 2.19497e-002
1569	 1.7300000000e+002	 2.18466e-002
1570	 1.7306250000e+002	 2.48488e-002
1571	 1.7312500000e+002	 2.88807e-002
1572	 1.7318750000e+002	 2.46715e-002
1573	 1.7325000000e+002	 4.11731e-002
1574	 1.7331250000e+002	 3.14193e-002
1575	 1.7337500000e+002	 2.69353e-002
1576	 1.7343750000e+002	 2.00773e-002
1577	 1.7350000000e+002	 9.60631e-003
1578	 1.7356250000e+002	 1.29868e-002
1579	 1.7362500000e+002	 1.79792e-002
1580	 1.7368750000e+002	 2.77845e-002
1581	 1.7375000000e+002	 2.58014e-002
1582	 1.7381250000e+002	 2.35672e-002
1583	 1.7387500000e+002	 1.79055e-002
1584	 1.7393750000e+002	 1.17600e-002
1585	 1.7400000000e+002	 1.19352e-002
1586	 1.7406250000e+002	 9.57972e-003
1587	 1.7412500000e+002	 7.05026e-003
1588	 1.7418750000e+002	 2.16471e-002
1589	 1.7425000000e+002	 3.19998e-002
1590	 1.7431250000e+002	 2.19530e-002
1591	 1.7437500000e+002	 2.76752e-002
1592	 1.7443750000e+002	 2.44480e-002
1593	 1.7450000000e+002	 2.73399e-002
1594	 1.7456250000e+002	 3.01517e-002
1595	 1.7462500000e+002	 1.38746e-002
1596	 1.7468750000e+002	 1.90237e-002
1597	 1.7475000000e+002	 2.90940e-002
1598	 1.7481250000e+002	 4.50611e-002
1599	 1.7487500000e+002	 3.69327e-002
1600	 1.7493750000e+002	 1.14831e-002
1601	 1.7500000000e+002	 1.33358e-002
1602	 1.7506250000e+002	 2.65009e-002
1603	 1.7512500000e+002	 3.20583e-002
1604	 1.7518750000e+002	 2.39909e-002
1605	 1.7525000000e+002	 3.80860e-002
1606	 1.7531250000e+002	 2.62990e-002
1607	 1.7537500000e+002	 9.42356e-003
1608	 1.7543750000e+002	 1.06337e-002
1609	 1.7550000000e+002	 1.84675e-002
1610	 1.7556250000e+002	 4.12270e-002
1611	 1.7562500000e+002	 2.97407e-002
1612	 1.7568750000e+002	 1.06907e-002
1613	 1.7575000000e+002	 1.32577e-002
1614	 1.7581250000e+002	 1.82574e-002
1615	 1.7587500000e+002	 2.27669e-002
1616	 1.7593750000e+002	 1.95304e-002
1617	 1.7600000000e+002	 1.28011e-002
1618	 1.7606250000e+002	 2.22391e-002
1619	 1.7612500000e+002	 1.61770e-002
1620	 1.7618750000e+002	 9.05836e-003
1621	 1.7625000000e+002	 1.61935e-002
1622	 1.7631250000e+002	 2.08079e-002
1623	 1.7637500000e+002	 1.89577e-002
1624	 1.7643750000e+002	 2.61536e-002
1625	 1.7650000000e+002	 3.63548e-002
1626	 1.7656250000e+002	 2.24023e-002
1627	 1.7662500000e+002	 9.45465e-003
1628	 1.7668750000e+002	 9.65279e-003
1629	 1.7675000000e+002	 9.30011e-003
1630	 1.7681250000e+002	 1.27215e-002
1631	 1.7687500000e+002	 9.39426e-003
1632	 1.7693750000e+002	 1.31555e-002
1633	 1.7700000000e+002	 2.50377e-002
1634	 1.7706250000e+002	 2.09857e-002
1635	 1.7712500000e+002	 1.33528e-002
1636	 1.7718750000e+002	 1.55915e-002
1637	 1.7725000000e+002	 1.26585e-002
1638	 1.7731250000e+002	 8.06416e-003
1639	 1.7737500000e+002	 1.18421e-002
1640	 1.7743750000e+002	 1.57775e-002
1641	 1.7750000000e+002	 1.11499e-002
1642	 1.7756250000e+002	 3.64518e-003
1643	 1.7762500000e+002	 5.55197e-003
1644	 1.7768750000e+002	 1.31619e-002
1645	 1.7775000000e+002	 1.92537e-002
1646	 1.7781250000e+002	 1.55056e-002
1647	 1.7787500000e+002	 2.19571e-002
1648	 1.7793750000e+002	 1.50148e-002
1649	 1.7800000000e+002	 1.36427e-002
1650	 1.7806250000e+002	 1.13042e-002
1651	 1.7812500000e+002	 1.72241e-002
1652	 1.7818750000e+002	 2.07446e-002
1653	 1.7825000000e+002	 1.69802e-002
1654	 1.7831250000e+002	 1.53711e-002
1655	 1.7837500000e+002	 2.25342e-002
1656	 1.7843750000e+002	 1.85039e-002
1657	 1.7850000000e+002	 2.13652e-002
1658	 1.7856250000e+002	 8.70284e-003
1659	 1.7862500000e+002	 1.77952e-002
1660	 1.7868750000e+002	 1.27921e-002
1661	 1.7875000000e+002	 1.05852e-002
1662	 1.7881250000e+002	 1.61175e-002
1663	 1.7887500000e+002	 1.56265e-002
1664	 1.7893750000e+002	 1.55738e-002
1665	 1.7900000000e+002	 1.66722e-002
1666	 1.7906250000e+002	 9.61468e-003
1667	 1.7912500000e+002	 1.63539e-002
1668	 1.7918750000e+002	 1.16440e-002
1669	 1.7925000000e+002	 2.07622e-002
1670	 1.7931250000e+002	 1.97804e-002
1671	 1.7937500000e+002	 7.32406e-003
1672	 1.7943750000e+002	 6.85967e-003
1673	 1.7950000000e+002	 1.67172e-002
1674	 1.7956250000e+002	 2.53339e-002
1675	 1.7962500000e+002	 2.27113e-002
1676	 1.7968750000e+002	 9.17411e-003
1677	 1.7975000000e+002	 6.14191e-003
1678	 1.7981250000e+002	 7.86406e-003
1679	 1.7987500000e+002	 1.02863e-002
1680	 1.7993750000e+002	 9.52370e-003
1681	 1.8000000000e+002	 8.85667e-003
1682	 1.8006250000e+002	 1.27727e-002
1683	 1.8012500000e+002	 9.34683e-003
1684	 1.8018750000e+002	 7.09468e-003
1685	 1.8025000000e+002	 1.36463e-002
1686	 1.8031250000e+002	 1.17886e-002
1687	 1.8037500000e+002	 1.73622e-002
1688	 1.8043750000e+002	 4.14929e-002
1689	 1.8050000000e+002	 2.72141e-002
1690	 1.8056250000e+002	 2.20902e-002
1691	 1.8062500000e+002	 2.54781e-002
1692	 1.8068750000e+002	 3.07466e-002
1693	 1.8075000000e+002	 2.80858e-002
1694	 1.8081250000e+002	 1.69478e-002
1695	 1.8087500000e+002	 1.49117e-002
1696	 1.8093750000e+002	 1.61676e-002
1697	 1.8100000000e+002	 1.60898e-002
1698	 1.8106250000e+002	 1.70413e-002
1699	 1.8112500000e+002	 1.68696e-002
1700	 1.8118750000e+002	 6.25027e-003
1701	 1.8125000000e+002	 7.23662e-003
1702	 1.8131250000e+002	 1.31805e-002
1703	 1.8137500000e+002	 1.69254e-002
1704	 1.8143750000e+002	 2.06444e-002
1705	 1.8150000000e+002	 2.75917e-002
1706	 1.8156250000e+002	 2.28844e-002
1707	 1.8162500000e+002	 1.10268e-002
1708	 1.8168750000e+002	 1.52835e-002
1709	 1.8175000000e+002	 2.80746e-002
1710	 1.8181250000e+002	 1.99112e-002
1711	 1.8187500000e+002	 2.69219e-002
1712	 1.8193750000e+002	 3.81958e-002
1713	 1.8200000000e+002	 2.87019e-002
1714	 1.8206250000e+002	 1.88328e-002
1715	 1.8212500000e+002	 2.37096e-002
1716	 1.8218750000e+002	 1.16108e-002
1717	 1.8225000000e+002	 9.71378e-003
1718	 1.8231250000e+002	 1.24496e-002
1719	 1.8237500000e+002	 8.82048e-003
1720	 1.8243750000e+002	 8.72757e-003
1721	 1.8250000000e+002	 1.52940e-002
1722	 1.8256250000e+002	 1.58866e-002
1723	 1.8262500000e+002	 2.01186e-002
1724	 1.8268750000e+002	 1.76377e-002
1725	 1.8275000000e+002	 1.00291e-002
1726	 1.8281250000e+002	 9.15056e-003
1727	 1.8287500000e+002	 9.47270e-003
1728	 1.8293750000e+002	 1.53409e-002
1729	 1.8300000000e+002	 2.08081e-002
1730	 1.8306250000e+002	 1.77863e-002
1731	 1.8312500000e+002	 1.42828e-002
1732	 1.8318750000e+002	 1.78547e-002
1733	 1.8325000000e+002	 2.03749e-002
1734	 1.8331250000e+002	 1.87399e-002
1735	 1.8337500000e+002	 5.90533e-003
1736	 1.8343750000e+002	 1.18393e-002
1737	 1.8350000000e+002	 1.56088e-002
1738	 1.8356250000e+002	 2.01094e-002
1739	 1.8362500000e+002	 1.73367e-002
1740	 1.8368750000e+002	 1.71186e-002
1741	 1.8375000000e+002	 1.42065e-002
1742	 1.8381250000e+002	 1.60453e-002
1743	 1.8387500000e+002	 1.28873e-002
1744	 1.8393750000e+002	 1.11873e-002
1745	 1.8400000000e+002	 1.62489e-002
1746	 1.8406250000e+002	 1.06734e-002
1747	 1.8412500000e+002	 2.15592e-002
1748	 1.8418750000e+002	 2.25796e-002
1749	 1.8425000000e+002	 1.05064e-002
1750	 1.8431250000e+002	 1.28428e-002
1751	 1.8437500000e+002	 1.94998e-002
1752	 1.8443750000e+002	 1.52712e-002
1753	 1.8450000000e+002	 7.37289e-003
1754	 1.8456250000e+002	 9.02673e-003
1755	 1.8462500000e+002	 1.49011e-002
1756	 1.8468750000e+002	 1.18461e-002
1757	 1.8475000000e+002	 9.27329e-003
1758	 1.8481250000e+002	 1.37420e-002
1759	 1.8487500000e+002	 1.37460e-002
1760	 1.8493750000e+002	 4.20293e-003
1761	 1.8500000000e+002	 3.39379e-003
1762	 1.8506250000e+002	 6.54900e-003
1763	 1.8512500000e+002	 3.23062e-003
1764	 1.8518750000e+002	 5.37222e-003
1765	 1.8525000000e+002	 5.88973e-003
1766	 1.8531250000e+002	 8.80966e-003
1767	 1.8537500000e+002	 1.12224e-002
1768	 1.8543750000e+002	 1.28331e-002
1769	 1.8550000000e+002	 1.51934e-002
1770	 1.8556250000e+002	 1.30909e-002
1771	 1.8562500000e+002	 9.90009e-003
1772	 1.8568750000e+002	 1.10931e-002
1773	 1.8575000000e+002	 1.22721e-002
1774	 1.8581250000e+002	 1.08832e-002
1775	 1.8587500000e+002	 8.61223e-003
1776	 1.8593750000e+002	 8.35112e-003
1777	 1.8600000000e+002	 1.23046e-002
1778	 1.8606250000e+002	 9.24565e-003
1779	 1.8612500000e+002	 8.28632e-003
1780	 1.8618750000e+002	 7.43588e-003
1781	 1.8625000000e+002	 1.38728e-002
1782	 1.8631250000e+002	 1.84359e-002
1783	 1.8637500000e+002	 2.69061e-002
1784	 1.8643750000e+002	 1.93595e-002
1785	 1.8650000000e+002	 1.31159e-002
1786	 1.8656250000e+002	 1.43724e-002
1787	 1.8662500000e+002	 1.78663e-002
1788	 1.8668750000e+002	 2.68171e-002
1789	 1.8675000000e+002	 2.45608e-002
1790	 1.8681250000e+002	 8.82255e-003
1791	 1.8687500000e+002	 7.21686e-003
1792	 1.8693750000e+002	 9.63985e-003
1793	 1.8700000000e+002	 7.09953e-003
1794	 1.8706250000e+002	 6.30276e-003
1795	 1.8712500000e+002	 1.65547e-002
1796	 1.8718750000e+002	 1.93390e-002
1797	 1.8725000000e+002	 1.00655e-002
1798	 1.8731250000e+002	 1.14821e-002
1799	 1.8737500000e+002	 1.14990e-002
1800	 1.8743750000e+002	 4.96720e-003
1801	 1.8750000000e+002	 6.42007e-003
1802	 1.8756250000e+002	 1.19709e-002
1803	 1.8762500000e+002	 8.68027e-003
1804	 1.8768750000e+002	 8.23636e-003
1805	 1.8775000000e+002	 9.37869e-003
1806	 1.8781250000e+002	 1.28625e-002
1807	 1.8787500000e+002	 1.23702e-002
1808	 1.8793750000e+002	 9.36363e-003
1809	 1.8800000000e+002	 9.10101e-003
1810	 1.8806250000e+002	 1.38164e-002
1811	 1.8812500000e+002	 1.91160e-002
1812	 1.8818750000e+002	 5.80099e-003
1813	 1.8825000000e+002	 1.31524e-002
1814	 1.8831250000e+002	 1.45468e-002
1815	 1.8837500000e+002	 9.46418e-003
1816	 1.8843750000e+002	 9.32011e-003
1817	 1.8850000000e+002	 5.54682e-003
1818	 1.8856250000e+002	 8.98045e-003
1819	 1.8862500000e+002	 1.17498e-002
1820	 1.8868750000e+002	 1.55818e-002
1821	 1.8875000000e+002	 7.75077e-003
1822	 1.8881250000e+002	 7.82070e-003
1823	 1.8887500000e+002	 1.05153e-002
1824	 1.8893750000e+002	 1.40175e-002
1825	 1.8900000000e+002	 1.25486e-002
1826	 1.8906250000e+002	 1.31798e-002
1827	 1.8912500000e+002	 1.24649e-002
1828	 1.8918750000e+002	 8.62935e-003
1829	 1.8925000000e+002	 8.37640e-003
1830	 1.8931250000e+002	 8.23948e-003
1831	 1.8937500000e+002	 1.41819e-002
1832	 1.8943750000e+002	 1.38187e-002
1833	 1.8950000000e+002	 2.19729e-002
1834	 1.8956250000e+002	 2.61366e-002
1835	 1.8962500000e+002	 2.19512e-002
1836	 1.8968750000e+002	 8.01143e-003
1837	 1.8975000000e+002	 1.31453e-002
1838	 1.8981250000e+002	 2.32284e-002
1839	 1.8987500000e+002	 1.35772e-002
1840	 1.8993750000e+002	 9.75740e-003
1841	 1.9000000000e+002	 7.66531e-003
1842	 1.9006250000e+002	 8.51716e-003
1843	 1.9012500000e+002	 1.23183e-002
1844	 1.9018750000e+002	 7.37703e-003
1845	 1.9025000000e+002	 1.72210e-002
1846	 1.9031250000e+002	 2.17462e-002
1847	 1.9037500000e+002	 2.78837e-002
1848	 1.9043750000e+002	 2.84263e-002
1849	 1.9050000000e+002	 1.32236e-002
1850	 1.9056250000e+002	 1.74728e-002
1851	 1.9062500000e+002	 1.94350e-002
1852	 1.9068750000e+002	 1.98148e-002
1853	 1.9075000000e+002	 1.77399e-002
1854	 1.9081250000e+002	 1.36687e-002
1855	 1.9087500000e+002	 2.00164e-002
1856	 1.9093750000e+002	 1.81725e-002
1857	 1.9100000000e+002	 2.61447e-002
1858	 1.9106250000e+002	 1.18106e-002
1859	 1.9112500000e+002	 8.90556e-003
1860	 1.9118750000e+002	 1.36718e-002
1861	 1.9125000000e+002	 1.04115e-002
1862	 1.9131250000e+002	 1.51182e-002
1863	 1.9137500000e+002	 1.59634e-002
1864	 1.9143750000e+002	 1.39496e-002
1865	 1.9150000000e+002	 1.05771e-002
1866	 1.9156250000e+002	 9.16735e-003
1867	 1.9162500000e+002	 7.35800e-003
1868	 1.9168750000e+002	 1.32203e-002
1869	 1.9175000000e+002	 1.52803e-002
1870	 1.9181250000e+002	 1.83845e-002
1871	 1.9187500000e+002	 1.96261e-002
1872	 1.9193750000e+002	 1.24238e-002
1873	 1.9200000000e+002	 1.04170e-002
1874	 1.9206250000e+002	 1.20139e-002
1875	 1.9212500000e+002	 1.50590e-002
1876	 1.9218750000e+002	 2.74389e-002
1877	 1.9225000000e+002	 3.24612e-002
1878	 1.9231250000e+002	 1.67353e-002
1879	 1.9237500000e+002	 1.08000e-002
1880	 1.9243750000e+002	 1.99427e-002
1881	 1.9250000000e+002	 2.13386e-002
1882	 1.9256250000e+002	 1.47283e-002
1883	 1.9262500000e+002	 9.17818e-003
1884	 1.9268750000e+002	 1.11911e-002
1885	 1.9275000000e+002	 9.88144e-003
1886	 1.9281250000e+002	 1.51621e-002
1887	 1.9287500000e+002	 1.17427e-002
1888	 1.9293750000e+002	 1.04736e-002
1889	 1.9300000000e+002	 1.16902e-002
1890	 1.9306250000e+002	 7.82224e-003
1891	 1.9312500000e+002	 1.10976e-002
1892	 1.9318750000e+002	 1.25248e-002
1893	 1.9325000000e+002	 1.03274e-002
1894	 1.9331250000e+002	 1.65448e-002
1895	 1.9337500000e+002	 1.33867e-002
1896	 1.9343750000e+002	 7.04856e-003
1897	 1.9350000000e+002	 1.29565e-002
1898	 1.9356250000e+002	 9.32054e-003
1899	 1.9362500000e+002	 1.46016e-002
1900	 1.9368750000e+002	 1.59393e-002
1901	 1.9375000000e+002	 1.44219e-002
1902	 1.9381250000e+002	 7.31380e-003
1903	 1.9387500000e+002	 3.72231e-003
1904	 1.9393750000e+002	 8.87406e-003
1905	 1.9400000000e+002	 1.33257e-002
1906	 1.9406250000e+002	 1.79705e-002
1907	 1.9412500000e+002	 2.30016e-002
1908	 1.9418750000e+002	 1.87743e-002
1909	 1.9425000000e+002	 1.71157e-002
1910	 1.9431250000e+002	 1.16568e-002
1911	 1.9437500000e+002	 1.61884e-002
1912	 1.9443750000e+002	 2.43782e-002
1913	 1.9450000000e+002	 1.37400e-002
1914	 1.9456250000e+002	 1.46936e-002
1915	 1.9462500000e+002	 1.35653e-002
1916	 1.9468750000e+002	 2.36279e-002
1917	 1.9475000000e+002	 1.50520e-002
1918	 1.9481250000e+002	 1.59221e-002
1919	 1.9487500000e+002	 1.38045e-002
1920	 1.9493750000e+002	 8.73386e-003
1921	 1.9500000000e+002	 2.00364e-002
1922	 1.9506250000e+002	 2.42853e-002
1923	 1.9512500000e+002	 1.47967e-002
1924	 1.9518750000e+002	 1.01114e-002
1925	 1.9525000000e+002	 7.67023e-003
1926	 1.9531250000e+002	 1.39216e-002
1927	 1.9537500000e+002	 1.33543e-002
1928	 1.9543750000e+002	 1.16650e-002
1929	 1.9550000000e+002	 1.67733e-002
1930	 1.9556250000e+002	 1.12727e-002
1931	 1.9562500000e+002	 1.50109e-002
1932	 1.9568750000e+002	 2.51765e-002
1933	 1.9575000000e+002	 2.91986e-002
1934	 1.9581250000e+002	 1.47951e-002
1935	 1.9587500000e+002	 1.55656e-002
1936	 1.9593750000e+002	 1.52450e-002
1937	 1.9600000000e+002	 1.08464e-002
1938	 1.9606250000e+002	 1.27889e-002
1939	 1.9612500000e+002	 1.82241e-002
1940	 1.9618750000e+002	 1.53481e-002
1941	 1.9625000000e+002	 7.56582e-003
1942	 1.9631250000e+002	 7.01865e-003
1943	 1.9637500000e+002	 3.86699e-003
1944	 1.9643750000e+002	 4.31182e-003
1945	 1.9650000000e+002	 7.56448e-003
1946	 1.9656250000e+002	 1.33040e-002
1947	 1.9662500000e+002	 2.31880e-002
1948	 1.9668750000e+002	 2.57908e-002
1949	 1.9675000000e+002	 1.12450e-002
1950	 1.9681250000e+002	 5.22643e-003
1951	 1.9687500000e+002	 1.24994e-002
1952	 1.9693750000e+002	 3.41840e-002
1953	 1.9700000000e+002	 3.26624e-002
1954	 1.9706250000e+002	 2.06290e-002
1955	 1.9712500000e+002	 2.09692e-002
1956	 1.9718750000e+002	 3.86163e-002
1957	 1.9725000000e+002	 2.37240e-002
1958	 1.9731250000e+002	 1.72839e-002
1959	 1.9737500000e+002	 9.47705e-003
1960	 1.9743750000e+002	 1.24777e-002
1961	 1.9750000000e+002	 2.86308e-002
1962	 1.9756250000e+002	 2.95463e-002
1963	 1.9762500000e+002	 2.33885e-002
1964	 1.9768750000e+002	 1.68315e-002
1965	 1.9775000000e+002	 9.88830e-003
1966	 1.9781250000e+002	 8.33736e-003
1967	 1.9787500000e+002	 1.40650e-002
1968	 1.9793750000e+002	 3.51105e-002
1969	 1.9800000000e+002	 2.32176e-002
1970	 1.9806250000e+002	 1.14914e-002
1971	 1.9812500000e+002	 1.22750e-002
1972	 1.9818750000e+002	 1.88949e-002
1973	 1.9825000000e+002	 1.46589e-002
1974	 1.9831250000e+002	 1.35683e-002
1975	 1.9837500000e+002	 1.88250e-002
1976	 1.9843750000e+002	 1.78898e-002
1977	 1.9850000000e+002	 7.52474e-003
1978	 1.9856250000e+002	 9.39254e-003
1979	 1.9862500000e+002	 9.59284e-003
1980	 1.9868750000e+002	 9.87441e-003
1981	 1.9875000000e+002	 2.76930e-002
1982	 1.9881250000e+002	 2.51998e-002
1983	 1.9887500000e+002	 1.73911e-002
1984	 1.9893750000e+002	 1.70135e-002
1985	 1.9900000000e+002	 3.18760e-002
1986	 1.9906250000e+002	 2.95047e-002
1987	 1.9912500000e+002	 1.97798e-002
1988	 1.9918750000e+002	 2.17877e-002
1989	 1.9925000000e+002	 2.89020e-002
1990	 1.9931250000e+002	 7.34089e-003
1991	 1.9937500000e+002	 1.11410e-002
1992	 1.9943750000e+002	 1.58164e-002
1993	 1.9950000000e+002	 1.27498e-002
1994	 1.9956250000e+002	 7.81064e-003
1995	 1.9962500000e+002	 1.13840e-002
1996	 1.9968750000e+002	 1.37912e-002
1997	 1.9975000000e+002	 9.61261e-003
1998	 1.9981250000e+002	 1.19282e-002
1999	 1.9987500000e+002	 3.25248e-002
2000	 1.9993750000e+002	 3.12767e-002
2001	 2.0000000000e+002	 3.10071e-002
2002	 2.0006250000e+002	 1.94352e-002
2003	 2.0012500000e+002	 1.53303e-002
2004	 2.0018750000e+002	 2.74362e-002
2005	 2.0025000000e+002	 4.66686e-002
2006	 2.0031250000e+002	 3.78182e-002
2007	 2.0037500000e+002	 3.67640e-002
2008	 2.0043750000e+002	 3.63241e-002
2009	 2.0050000000e+002	 3.23157e-002
2010	 2.0056250000e+002	 3.54389e-002
2011	 2.0062500000e+002	 9.61784e-003
2012	 2.0068750000e+002	 1.27137e-002
2013	 2.0075000000e+002	 1.33276e-002
2014	 2.0081250000e+002	 1.38577e-002
2015	 2.0087500000e+002	 1.57393e-002
2016	 2.0093750000e+002	 2.53777e-002
2017	 2.0100000000e+002	 2.09678e-002
2018	 2.0106250000e+002	 1.69750e-002
2019	 2.0112500000e+002	 1.99617e-002
2020	 2.0118750000e+002	 2.22312e-002
2021	 2.0125000000e+002	 1.79696e-002
2022	 2.0131250000e+002	 1.27786e-002
2023	 2.0137500000e+002	 3.15596e-002
2024	 2.0143750000e+002	 1.73511e-002
2025	 2.0150000000e+002	 1.10936e-002
2026	 2.0156250000e+002	 1.85390e-002
2027	 2.0162500000e+002	 3.03870e-002
2028	 2.0168750000e+002	 4.43694e-002
2029	 2.0175000000e+002	 3.74737e-002
2030	 2.0181250000e+002	 2.71215e-002
2031	 2.0187500000e+002	 3.76208e-002
2032	 2.0193750000e+002	 2.89389e-002
2033	 2.0200000000e+002	 3.27662e-002
2034	 2.0206250000e+002	 3.05168e-002
2035	 2.0212500000e+002	 1.47664e-002
2036	 2.0218750000e+002	 1.95983e-002
2037	 2.0225000000e+002	 1.49873e-002
2038	 2.0231250000e+002	 2.30244e-002
2039	 2.0237500000e+002	 5.07185e-002
2040	 2.0243750000e+002	 4.02328e-002
2041	 2.0250000000e+002	 4.21376e-002
2042	 2.0256250000e+002	 3.80093e-002
2043	 2.0262500000e+002	 3.49986e-002
2044	 2.0268750000e+002	 3.09913e-002
2045	 2.0275000000e+002	 1.77770e-002
2046	 2.0281250000e+002	 1.91979e-002
2047	 2.0287500000e+002	 2.39585e-002
2048	 2.0293750000e+002	 4.09506e-002
2049	 2.0300000000e+002	 5.19072e-002
2050	 2.0306250000e+002	 3.30675e-002
2051	 2.0312500000e+002	 2.09532e-002
2052	 2.0318750000e+002	 2.81842e-002
2053	 2.0325000000e+002	 4.14478e-002
2054	 2.0331250000e+002	 3.42861e-002
2055	 2.0337500000e+002	 1.38222e-002
2056	 2.0343750000e+002	 1.39006e-002
2057	 2.0350000000e+002	 2.96153e-002
2058	 2.0356250000e+002	 4.55283e-002
2059	 2.0362500000e+002	 3.84799e-002
2060	 2.0368750000e+002	 2.40303e-002
2061	 2.0375000000e+002	 2.44882e-002
2062	 2.0381250000e+002	 3.19861e-002
2063	 2.0387500000e+002	 2.88940e-002
2064	 2.0393750000e+002	 2.60129e-002
2065	 2.0400000000e+002	 2.22495e-002
2066	 2.0406250000e+002	 5.06048e-002
2067	 2.0412500000e+002	 5.22707e-002
2068	 2.0418750000e+002	 2.78115e-002
2069	 2.0425000000e+002	 2.43046e-002
2070	 2.0431250000e+002	 2.55576e-002
2071	 2.0437500000e+002	 2.64094e-002
2072	 2.0443750000e+002	 2.32743e-002
2073	 2.0450000000e+002	 1.89555e-002
2074	 2.0456250000e+002	 1.77244e-002
2075	 2.0462500000e+002	 2.87260e-002
2076	 2.0468750000e+002	 3.90139e-002
2077	 2.0475000000e+002	 1.90306e-002
2078	 2.0481250000e+002	 4.50685e-002
2079	 2.0487500000e+002	 6.02210e-002
2080	 2.0493750000e+002	 2.74081e-002
2081	 2.0500000000e+002	 1.96534e-002
2082	 2.0506250000e+002	 2.81268e-002
2083	 2.0512500000e+002	 3.20742e-002
2084	 2.0518750000e+002	 4.96667e-002
2085	 2.0525000000e+002	 7.83030e-002
2086	 2.0531250000e+002	 5.02717e-002
2087	 2.0537500000e+002	 5.22034e-002
2088	 2.0543750000e+002	 4.52207e-002
2089	 2.0550000000e+002	 3.49525e-002
2090	 2.0556250000e+002	 5.05854e-002
2091	 2.0562500000e+002	 5.44937e-002
2092	 2.0568750000e+002	 5.11025e-002
2093	 2.0575000000e+002	 3.55357e-002
2094	 2.0581250000e+002	 3.61497e-002
2095	 2.0587500000e+002	 4.89649e-002
2096	 2.0593750000e+002	 5.40349e-002
2097	 2.0600000000e+002	 6.37936e-002
2098	 2.0606250000e+002	 5.21097e-002
2099	 2.0612500000e+002	 4.35647e-002
2100	 2.0618750000e+002	 4.37299e-002
2101	 2.0625000000e+002	 3.39126e-002
2102	 2.0631250000e+002	 3.71876e-002
2103	 2.0637500000e+002	 3.23416e-002
2104	 2.0643750000e+002	 2.16149e-002
2105	 2.0650000000e+002	 3.90949e-002
2106	 2.0656250000e+002	 2.74903e-002
2107	 2.0662500000e+002	 4.40003e-002
2108	 2.0668750000e+002	 1.45898e-001
2109	 2.0675000000e+002	 1.46814e-001
2110	 2.0681250000e+002	 8.88801e-002
2111	 2.0687500000e+002	 7.29474e-002
2112	 2.0693750000e+002	 4.27424e-002
2113	 2.0700000000e+002	 6.79683e-002
2114	 2.0706250000e+002	 6.22678e-002
2115	 2.0712500000e+002	 2.21973e-002
2116	 2.0718750000e+002	 1.50063e-002
2117	 2.0725000000e+002	 2.58535e-002
2118	 2.0731250000e+002	 4.68063e-002
2119	 2.0737500000e+002	 5.81454e-002
2120	 2.0743750000e+002	 3.63618e-002
2121	 2.0750000000e+002	 2.73179e-002
2122	 2.0756250000e+002	 4.56298e-002
2123	 2.0762500000e+002	 6.32931e-002
2124	 2.0768750000e+002	 3.90379e-002
2125	 2.0775000000e+002	 1.70310e-002
2126	 2.0781250000e+002	 5.50719e-002
2127	 2.0787500000e+002	 8.49080e-002
2128	 2.0793750000e+002	 1.12225e-001
2129	 2.0800000000e+002	 1.38480e-001
2130	 2.0806250000e+002	 6.17634e-002
2131	 2.0812500000e+002	 5.42524e-002
2132	 2.0818750000e+002	 8.79386e-002
2133	 2.0825000000e+002	 1.54226e-001
2134	 2.0831250000e+002	 9.72568e-002
2135	 2.0837500000e+002	 9.87264e-002
2136	 2.0843750000e+002	 6.85611e-002
2137	 2.0850000000e+002	 7.71881e-002
2138	 2.0856250000e+002	 1.18577e-001
2139	 2.0862500000e+002	 1.44202e-001
2140	 2.0868750000e+002	 1.78269e-001
2141	 2.0875000000e+002	 1.22549e-001
2142	 2.0881250000e+002	 7.93571e-002
2143	 2.0887500000e+002	 8.53091e-002
2144	 2.0893750000e+002	 5.76984e-002
2145	 2.0900000000e+002	 4.88000e-002
2146	 2.0906250000e+002	 1.27999e-001
2147	 2.0912500000e+002	 1.48448e-001
2148	 2.0918750000e+002	 2.06944e-001
2149	 2.0925000000e+002	 2.94193e-001
2150	 2.0931250000e+002	 1.29426e-001
2151	 2.0937500000e+002	 1.01808e-001
2152	 2.0943750000e+002	 1.06182e-001
2153	 2.0950000000e+002	 1.00816e-001
2154	 2.0956250000e+002	 1.39000e-001
2155	 2.0962500000e+002	 1.19288e-001
2156	 2.0968750000e+002	 1.53247e-001
2157	 2.0975000000e+002	 1.12985e-001
2158	 2.0981250000e+002	 1.04426e-001
2159	 2.0987500000e+002	 1.18395e-001
2160	 2.0993750000e+002	 9.21683e-002
2161	 2.1000000000e+002	 1.33399e-001
2162	 2.1006250000e+002	 9.62509e-002
2163	 2.1012500000e+002	 3.35903e-002
2164	 2.1018750000e+002	 1.04932e-001
2165	 2.1025000000e+002	 1.87840e-001
2166	 2.1031250000e+002	 1.69790e-001
2167	 2.1037500000e+002	 1.16405e-001
2168	 2.1043750000e+002	 6.54587e-002
2169	 2.1050000000e+002	 8.49869e-002
2170	 2.1056250000e+002	 1.57938e-001
2171	 2.1062500000e+002	 1.32226e-001
2172	 2.1068750000e+002	 1.48640e-001
2173	 2.1075000000e+002	 1.44016e-001
2174	 2.1081250000e+002	 1.41072e-001
2175	 2.1087500000e+002	 2.33165e-001
2176	 2.1093750000e+002	 3.04530e-001
2177	 2.1100000000e+002	 2.33402e-001
2178	 2.1106250000e+002	 1.24168e-001
2179	 2.1112500000e+002	 1.11676e-001
2180	 2.1118750000e+002	 1.73163e-001
2181	 2.1125000000e+002	 1.50431e-001
2182	 2.1131250000e+002	 1.82498e-001
2183	 2.1137500000e+002	 1.79911e-001
2184	 2.1143750000e+002	 2.29340e-001
2185	 2.1150000000e+002	 3.17081e-001
2186	 2.1156250000e+002	 5.01964e-001
2187	 2.1162500000e+002	 3.37846e-001
2188	 2.1168750000e+002	 4.48136e-001
2189	 2.1175000000e+002	 3.09155e-001
2190	 2.1181250000e+002	 2.83090e-001
2191	 2.1187500000e+002	 4.71589e-001
2192	 2.1193750000e+002	 3.20893e-001
2193	 2.1200000000e+002	 2.11624e-001
2194	 2.1206250000e+002	 3.62106e-001
2195	 2.1212500000e+002	 2.96748e-001
2196	 2.1218750000e+002	 1.01643e-001
2197	 2.1225000000e+002	 1.21317e-001
2198	 2.1231250000e+002	 2.52407e-001
2199	 2.1237500000e+002	 2.86592e-001
2200	 2.1243750000e+002	 2.00138e-001
2201	 2.1250000000e+002	 1.71744e-001
2202	 2.1256250000e+002	 3.17769e-001
2203	 2.1262500000e+002	 4.65854e-001
2204	 2.1268750000e+002	 7.29923e-001
2205	 2.1275000000e+002	 4.47928e-001
2206	 2.1281250000e+002	 1.48107e-001
2207	 2.1287500000e+002	 2.59227e-001
2208	 2.1293750000e+002	 2.70104e-001
2209	 2.1300000000e+002	 3.34730e-001
2210	 2.1306250000e+002	 3.97953e-001
2211	 2.1312500000e+002	 2.44045e-001
2212	 2.1318750000e+002	 2.53679e-001
2213	 2.1325000000e+002	 5.59270e-001
2214	 2.1331250000e+002	 6.54003e-001
2215	 2.1337500000e+002	 6.02010e-001
2216	 2.1343750000e+002	 4.88761e-001
2217	 2.1350000000e+002	 4.25183e-001
2218	 2.1356250000e+002	 4.46561e-001
2219	 2.1362500000e+002	 8.08735e-001
2220	 2.1368750000e+002	 4.99741e-001
2221	 2.1375000000e+002	 2.10336e-001
2222	 2.1381250000e+002	 3.13651e-001
2223	 2.1387500000e+002	 4.03196e-001
2224	 2.1393750000e+002	 4.12924e-001
2225	 2.1400000000e+002	 3.92480e-001
2226	 2.1406250000e+002	 5.06240e-001
2227	 2.1412500000e+002	 8.08823e-001
2228	 2.1418750000e+002	 6.02696e-001
2229	 2.1425000000e+002	 9.33307e-001
2230	 2.1431250000e+002	 8.35791e-001
2231	 2.1437500000e+002	 4.76754e-001
2232	 2.1443750000e+002	 5.61239e-001
2233	 2.1450000000e+002	 4.33787e-001
2234	 2.1456250000e+002	 1.70562e-001
2235	 2.1462500000e+002	 3.20766e-001
2236	 2.1468750000e+002	 6.19866e-001
2237	 2.1475000000e+002	 3.29187e-001
2238	 2.1481250000e+002	 2.12573e-001
2239	 2.1487500000e+002	 2.50574e-001
2240	 2.1493750000e+002	 4.19951e-001
2241	 2.1500000000e+002	 4.81195e-001
2242	 2.1506250000e+002	 4.36731e-001
2243	 2.1512500000e+002	 2.29831e-001
2244	 2.1518750000e+002	 3.26048e-001
2245	 2.1525000000e+002	 2.53137e-001
2246	 2.1531250000e+002	 4.38636e-001
2247	 2.1537500000e+002	 3.25325e-001
2248	 2.1543750000e+002	 2.75715e-001
2249	 2.1550000000e+002	 1.88621e-001
2250	 2.1556250000e+002	 2.63769e-001
2251	 2.1562500000e+002	 3.18536e-001
2252	 2.1568750000e+002	 4.71813e-001
2253	 2.1575000000e+002	 3.32431e-001
2254	 2.1581250000e+002	 2.26573e-001
2255	 2.1587500000e+002	 3.95569e-001
2256	 2.1593750000e+002	 3.75795e-001
2257	 2.1600000000e+002	 2.79794e-001
2258	 2.1606250000e+002	 3.52529e-001
2259	 2.1612500000e+002	 3.74920e-001
2260	 2.1618750000e+002	 1.54577e-001
2261	 2.1625000000e+002	 2.83551e-001
2262	 2.1631250000e+002	 2.89629e-001
2263	 2.1637500000e+002	 3.76001e-001
2264	 2.1643750000e+002	 6.14640e-001
2265	 2.1650000000e+002	 2.97880e-001
2266	 2.1656250000e+002	 1.95645e-001
2267	 2.1662500000e+002	 1.76907e-001
2268	 2.1668750000e+002	 2.17487e-001
2269	 2.1675000000e+002	 1.98972e-001
2270	 2.1681250000e+002	 1.89064e-001
2271	 2.1687500000e+002	 1.92302e-001
2272	 2.1693750000e+002	 2.69090e-001
2273	 2.1700000000e+002	 3.36841e-001
2274	 2.1706250000e+002	 3.00036e-001
2275	 2.1712500000e+002	 1.70539e-001
2276	 2.1718750000e+002	 1.26933e-001
2277	 2.1725000000e+002	 1.45094e-001
2278	 2.1731250000e+002	 1.77381e-001
2279	 2.1737500000e+002	 1.53058e-001
2280	 2.1743750000e+002	 2.25664e-001
2281	 2.1750000000e+002	 1.95775e-001
2282	 2.1756250000e+002	 1.64016e-001
2283	 2.1762500000e+002	 1.81319e-001
2284	 2.1768750000e+002	 7.15788e-002
2285	 2.1775000000e+002	 1.43224e-001
2286	 2.1781250000e+002	 1.39083e-001
2287	 2.1787500000e+002	 6.93769e-002
2288	 2.1793750000e+002	 1.40165e-001
2289	 2.1800000000e+002	 1.69710e-001
2290	 2.1806250000e+002	 1.28839e-001
2291	 2.1812500000e+002	 1.39773e-001
2292	 2.1818750000e+002	 1.24120e-001
2293	 2.1825000000e+002	 2.09915e-001
2294	 2.1831250000e+002	 1.62668e-001
2295	 2.1837500000e+002	 1.82953e-001
2296	 2.1843750000e+002	 1.02871e-001
2297	 2.1850000000e+002	 1.11767e-001
2298	 2.1856250000e+002	 9.96093e-002
2299	 2.1862500000e+002	 8.25241e-002
2300	 2.1868750000e+002	 1.69344e-001
2301	 2.1875000000e+002	 1.95452e-001
2302	 2.1881250000e+002	 1.03840e-001
2303	 2.1887500000e+002	 6.17346e-002
2304	 2.1893750000e+002	 8.65292e-002
2305	 2.1900000000e+002	 1.08684e-001
2306	 2.1906250000e+002	 1.12849e-001
2307	 2.1912500000e+002	 7.05690e-002
2308	 2.1918750000e+002	 9.34875e-002
2309	 2.1925000000e+002	 1.35803e-001
2310	 2.1931250000e+002	 6.50507e-002
2311	 2.1937500000e+002	 1.44940e-001
2312	 2.1943750000e+002	 1.41729e-001
2313	 2.1950000000e+002	 9.02646e-002
2314	 2.1956250000e+002	 7.25072e-002
2315	 2.1962500000e+002	 7.86637e-002
2316	 2.1968750000e+002	 1.07508e-001
2317	 2.1975000000e+002	 7.06966e-002
2318	 2.1981250000e+002	 1.10069e-001
2319	 2.1987500000e+002	 4.79503e-002
2320	 2.1993750000e+002	 7.26198e-002
2321	 2.2000000000e+002	 7.42766e-002
2322	 2.2006250000e+002	 8.35457e-002
2323	 2.2012500000e+002	 1.25213e-001
2324	 2.2018750000e+002	 1.42762e-001
2325	 2.2025000000e+002	 1.17949e-001
2326	 2.2031250000e+002	 9.33477e-002
2327	 2.2037500000e+002	 1.24642e-001
2328	 2.2043750000e+002	 1.20192e-001
2329	 2.2050000000e+002	 1.03197e-001
2330	 2.2056250000e+002	 6.01882e-002
2331	 2.2062500000e+002	 4.89256e-002
2332	 2.2068750000e+002	 6.77985e-002
2333	 2.2075000000e+002	 5.04812e-002
2334	 2.2081250000e+002	 7.80816e-002
2335	 2.2087500000e+002	 1.65796e-001
2336	 2.2093750000e+002	 1.25747e-001
2337	 2.2100000000e+002	 9.15778e-002
2338	 2.2106250000e+002	 1.59931e-001
2339	 2.2112500000e+002	 1.02110e-001
2340	 2.2118750000e+002	 2.61926e-002
2341	 2.2125000000e+002	 1.76403e-002
2342	 2.2131250000e+002	 3.82283e-002
2343	 2.2137500000e+002	 4.91136e-002
2344	 2.2143750000e+002	 3.94743e-002
2345	 2.2150000000e+002	 5.13404e-002
2346	 2.2156250000e+002	 5.44271e-002
2347	 2.2162500000e+002	 4.89318e-002
2348	 2.2168750000e+002	 7.16114e-002
2349	 2.2175000000e+002	 3.85502e-002
2350	 2.2181250000e+002	 4.27083e-002
2351	 2.2187500000e+002	 4.27388e-002
2352	 2.2193750000e+002	 3.92635e-002
2353	 2.2200000000e+002	 3.64444e-002
2354	 2.2206250000e+002	 2.16550e-002
2355	 2.2212500000e+002	 5.08308e-002
2356	 2.2218750000e+002	 7.49076e-002
2357	 2.2225000000e+002	 2.40842e-002
2358	 2.2231250000e+002	 2.55287e-002
2359	 2.2237500000e+002	 3.02330e-002
2360	 2.2243750000e+002	 2.41905e-002
2361	 2.2250000000e+002	 2.75164e-002
2362	 2.2256250000e+002	 2.68022e-002
2363	 2.2262500000e+002	 3.13183e-002
2364	 2.2268750000e+002	 3.66749e-002
2365	 2.2275000000e+002	 2.78169e-002
2366	 2.2281250000e+002	 1.49210e-002
2367	 2.2287500000e+002	 2.45813e-002
2368	 2.2293750000e+002	 3.14061e-002
2369	 2.2300000000e+002	 1.95792e-002
2370	 2.2306250000e+002	 1.56779e-002
2371	 2.2312500000e+002	 3.35752e-002
2372	 2.2318750000e+002	 5.50516e-002
2373	 2.2325000000e+002	 5.13698e-002
2374	 2.2331250000e+002	 3.67024e-002
2375	 2.2337500000e+002	 4.33004e-002
2376	 2.2343750000e+002	 3.65907e-002
2377	 2.2350000000e+002	 4.48741e-002
2378	 2.2356250000e+002	 3.98815e-002
2379	 2.2362500000e+002	 4.10806e-002
2380	 2.2368750000e+002	 5.28810e-002
2381	 2.2375000000e+002	 3.24539e-002
2382	 2.2381250000e+002	 1.08228e-002
2383	 2.2387500000e+002	 1.58064e-002
2384	 2.2393750000e+002	 4.28451e-002
2385	 2.2400000000e+002	 4.20585e-002
2386	 2.2406250000e+002	 2.86477e-002
2387	 2.2412500000e+002	 2.91563e-002
2388	 2.2418750000e+002	 4.77048e-002
2389	 2.2425000000e+002	 2.45250e-002
2390	 2.2431250000e+002	 1.08972e-002
2391	 2.2437500000e+002	 1.61391e-002
2392	 2.2443750000e+002	 1.54541e-002
2393	 2.2450000000e+002	 1.85378e-002
2394	 2.2456250000e+002	 2.35283e-002
2395	 2.2462500000e+002	 3.27033e-002
2396	 2.2468750000e+002	 3.68633e-002
2397	 2.2475000000e+002	 4.64360e-002
2398	 2.2481250000e+002	 7.09869e-002
2399	 2.2487500000e+002	 5.73238e-002
2400	 2.2493750000e+002	 1.32794e-002
2401	 2.2500000000e+002	 1.93064e-002
2402	 2.2506250000e+002	 2.68234e-002
2403	 2.2512500000e+002	 2.19419e-002
2404	 2.2518750000e+002	 1.46415e-002
2405	 2.2525000000e+002	 3.15625e-002
2406	 2.2531250000e+002	 2.28916e-002
2407	 2.2537500000e+002	 1.01120e-002
2408	 2.2543750000e+002	 9.69828e-003
2409	 2.2550000000e+002	 1.80332e-002
2410	 2.2556250000e+002	 2.40526e-002
2411	 2.2562500000e+002	 2.52036e-002
2412	 2.2568750000e+002	 3.01062e-002
2413	 2.2575000000e+002	 2.82285e-002
2414	 2.2581250000e+002	 2.49341e-002
2415	 2.2587500000e+002	 1.69559e-002
2416	 2.2593750000e+002	 2.43613e-002
2417	 2.2600000000e+002	 2.64931e-002
2418	 2.2606250000e+002	 3.89509e-002
2419	 2.2612500000e+002	 3.01086e-002
2420	 2.2618750000e+002	 1.91146e-002
2421	 2.2625000000e+002	 2.46251e-002
2422	 2.2631250000e+002	 2.93243e-002
2423	 2.2637500000e+002	 2.22282e-002
2424	 2.2643750000e+002	 2.58598e-002
2425	 2.2650000000e+002	 2.11258e-002
2426	 2.2656250000e+002	 3.73541e-002
2427	 2.2662500000e+002	 2.15641e-002
2428	 2.2668750000e+002	 7.64647e-003
2429	 2.2675000000e+002	 8.62873e-003
2430	 2.2681250000e+002	 7.18253e-003
2431	 2.2687500000e+002	 2.16333e-002
2432	 2.2693750000e+002	 4.28056e-002
2433	 2.2700000000e+002	 2.83894e-002
2434	 2.2706250000e+002	 1.36135e-002
2435	 2.2712500000e+002	 9.79183e-003
2436	 2.2718750000e+002	 1.33030e-002
2437	 2.2725000000e+002	 1.69857e-002
2438	 2.2731250000e+002	 1.84419e-002
2439	 2.2737500000e+002	 1.56936e-002
2440	 2.2743750000e+002	 1.94839e-002
2441	 2.2750000000e+002	 2.94908e-002
2442	 2.2756250000e+002	 1.70300e-002
2443	 2.2762500000e+002	 1.28569e-002
2444	 2.2768750000e+002	 3.07344e-002
2445	 2.2775000000e+002	 2.08524e-002
2446	 2.2781250000e+002	 1.18844e-002
2447	 2.2787500000e+002	 2.69812e-002
2448	 2.2793750000e+002	 2.74268e-002
2449	 2.2800000000e+002	 1.98617e-002
2450	 2.2806250000e+002	 1.22593e-002
2451	 2.2812500000e+002	 1.16976e-002
2452	 2.2818750000e+002	 1.70079e-002
2453	 2.2825000000e+002	 1.14957e-002
2454	 2.2831250000e+002	 2.17564e-002
2455	 2.2837500000e+002	 2.86979e-002
2456	 2.2843750000e+002	 2.04367e-002
2457	 2.2850000000e+002	 1.29779e-002
2458	 2.2856250000e+002	 1.48694e-002
2459	 2.2862500000e+002	 1.56380e-002
2460	 2.2868750000e+002	 1.43235e-002
2461	 2.2875000000e+002	 2.32940e-002
2462	 2.2881250000e+002	 2.12305e-002
2463	 2.2887500000e+002	 3.09044e-002
2464	 2.2893750000e+002	 1.89340e-002
2465	 2.2900000000e+002	 1.55272e-002
2466	 2.2906250000e+002	 1.02905e-002
2467	 2.2912500000e+002	 1.37476e-002
2468	 2.2918750000e+002	 1.42015e-002
2469	 2.2925000000e+002	 1.81736e-002
2470	 2.2931250000e+002	 1.39247e-002
2471	 2.2937500000e+002	 1.90967e-002
2472	 2.2943750000e+002	 1.50321e-002
2473	 2.2950000000e+002	 1.00438e-002
2474	 2.2956250000e+002	 9.08738e-003
2475	 2.2962500000e+002	 1.01888e-002
2476	 2.2968750000e+002	 6.22776e-003
2477	 2.2975000000e+002	 6.64554e-003
2478	 2.2981250000e+002	 9.48865e-003
2479	 2.2987500000e+002	 2.16289e-002
2480	 2.2993750000e+002	 2.86069e-002
2481	 2.3000000000e+002	 1.84860e-002
2482	 2.3006250000e+002	 1.61492e-002
2483	 2.3012500000e+002	 2.00527e-002
2484	 2.3018750000e+002	 1.96238e-002
2485	 2.3025000000e+002	 1.63891e-002
2486	 2.3031250000e+002	 1.54868e-002
2487	 2.3037500000e+002	 6.63556e-003
2488	 2.3043750000e+002	 9.50730e-003
2489	 2.3050000000e+002	 7.86557e-003
2490	 2.3056250000e+002	 3.30644e-003
2491	 2.3062500000e+002	 5.08785e-003
2492	 2.3068750000e+002	 7.03381e-003
2493	 2.3075000000e+002	 5.65074e-003
2494	 2.3081250000e+002	 7.18191e-003
2495	 2.3087500000e+002	 5.33852e-003
2496	 2.3093750000e+002	 7.52539e-003
2497	 2.3100000000e+002	 1.13553e-002
2498	 2.3106250000e+002	 8.87659e-003
2499	 2.3112500000e+002	 9.12249e-003
2500	 2.3118750000e+002	 1.00767e-002
2501	 2.3125000000e+002	 1.00390e-002
2502	 2.3131250000e+002	 9.05248e-003
2503	 2.3137500000e+002	 1.21800e-002
2504	 2.3143750000e+002	 1.87562e-002
2505	 2.3150000000e+002	 2.36048e-002
2506	 2.3156250000e+002	 1.25955e-002
2507	 2.3162500000e+002	 1.48597e-002
2508	 2.3168750000e+002	 2.32135e-002
2509	 2.3175000000e+002	 1.64176e-002
2510	 2.3181250000e+002	 1.18216e-002
2511	 2.3187500000e+002	 1.29548e-002
2512	 2.3193750000e+002	 7.86003e-003
2513	 2.3200000000e+002	 3.33709e-003
2514	 2.3206250000e+002	 3.62224e-003
2515	 2.3212500000e+002	 3.94826e-003
2516	 2.3218750000e+002	 7.82967e-003
2517	 2.3225000000e+002	 1.55076e-002
2518	 2.3231250000e+002	 1.60983e-002
2519	 2.3237500000e+002	 1.63243e-002
2520	 2.3243750000e+002	 1.17759e-002
2521	 2.3250000000e+002	 1.00587e-002
2522	 2.3256250000e+002	 1.29611e-002
2523	 2.3262500000e+002	 1.04133e-002
2524	 2.3268750000e+002	 7.62510e-003
2525	 2.3275000000e+002	 4.03550e-003
2526	 2.3281250000e+002	 4.84779e-003
2527	 2.3287500000e+002	 6.89757e-003
2528	 2.3293750000e+002	 1.11756e-002
2529	 2.3300000000e+002	 1.37946e-002
2530	 2.3306250000e+002	 4.83658e-003
2531	 2.3312500000e+002	 2.96514e-003
2532	 2.3318750000e+002	 6.68785e-003
2533	 2.3325000000e+002	 8.62022e-003
2534	 2.3331250000e+002	 1.42506e-002
2535	 2.3337500000e+002	 7.90686e-003
2536	 2.3343750000e+002	 1.43648e-002
2537	 2.3350000000e+002	 2.06800e-002
2538	 2.3356250000e+002	 1.39193e-002
2539	 2.3362500000e+002	 7.16055e-003
2540	 2.3368750000e+002	 4.01647e-003
2541	 2.3375000000e+002	 4.95603e-003
2542	 2.3381250000e+002	 6.61979e-003
2543	 2.3387500000e+002	 5.96199e-003
2544	 2.3393750000e+002	 5.97862e-003
2545	 2.3400000000e+002	 6.41273e-003
2546	 2.3406250000e+002	 5.51709e-003
2547	 2.3412500000e+002	 7.60475e-003
2548	 2.3418750000e+002	 7.71317e-003
2549	 2.3425000000e+002	 8.58543e-003
2550	 2.3431250000e+002	 8.45870e-003
2551	 2.3437500000e+002	 6.47104e-003
2552	 2.3443750000e+002	 8.12421e-003
2553	 2.3450000000e+002	 7.68288e-003
2554	 2.3456250000e+002	 9.10125e-003
2555	 2.3462500000e+002	 1.17281e-002
2556	 2.3468750000e+002	 1.08748e-002
2557	 2.3475000000e+002	 9.85833e-003
2558	 2.3481250000e+002	 1.30446e-002
2559	 2.3487500000e+002	 7.38396e-003
2560	 2.3493750000e+002	 1.27735e-002
2561	 2.3500000000e+002	 6.72731e-003
2562	 2.3506250000e+002	 6.81725e-003
2563	 2.3512500000e+002	 8.77925e-003
2564	 2.3518750000e+002	 7.72189e-003
2565	 2.3525000000e+002	 8.25506e-003
2566	 2.3531250000e+002	 9.48584e-003
2567	 2.3537500000e+002	 6.55152e-003
2568	 2.3543750000e+002	 6.83003e-003
2569	 2.3550000000e+002	 1.78524e-002
2570	 2.3556250000e+002	 1.34687e-002
2571	 2.3562500000e+002	 7.53640e-003
2572	 2.3568750000e+002	 3.93451e-003
2573	 2.3575000000e+002	 8.01825e-003
2574	 2.3581250000e+002	 1.41837e-002
2575	 2.3587500000e+002	 1.24686e-002
2576	 2.3593750000e+002	 7.89077e-003
2577	 2.3600000000e+002	 3.43163e-003
2578	 2.3606250000e+002	 2.88035e-003
2579	 2.3612500000e+002	 6.25358e-003
2580	 2.3618750000e+002	 1.25090e-002
2581	 2.3625000000e+002	 7.93117e-003
2582	 2.3631250000e+002	 5.07246e-003
2583	 2.3637500000e+002	 8.73582e-003
2584	 2.3643750000e+002	 1.07651e-002
2585	 2.3650000000e+002	 6.77116e-003
2586	 2.3656250000e+002	 9.58386e-003
2587	 2.3662500000e+002	 4.75507e-003
2588	 2.3668750000e+002	 5.49273e-003
2589	 2.3675000000e+002	 8.89275e-003
2590	 2.3681250000e+002	 1.04233e-002
2591	 2.3687500000e+002	 7.31366e-003
2592	 2.3693750000e+002	 1.02283e-002
2593	 2.3700000000e+002	 1.71950e-002
2594	 2.3706250000e+002	 1.05189e-002
2595	 2.3712500000e+002	 4.79541e-003
2596	 2.3718750000e+002	 8.37691e-003
2597	 2.3725000000e+002	 8.76394e-003
2598	 2.3731250000e+002	 5.21484e-003
2599	 2.3737500000e+002	 8.47017e-003
2600	 2.3743750000e+002	 1.00385e-002
2601	 2.3750000000e+002	 6.96974e-003
2602	 2.3756250000e+002	 2.85098e-003
2603	 2.3762500000e+002	 7.67719e-003
2604	 2.3768750000e+002	 1.31047e-002
2605	 2.3775000000e+002	 9.65881e-003
2606	 2.3781250000e+002	 1.09990e-002
2607	 2.3787500000e+002	 1.66738e-002
2608	 2.3793750000e+002	 7.43454e-003
2609	 2.3800000000e+002	 5.83291e-003
2610	 2.3806250000e+002	 9.10450e-003
2611	 2.3812500000e+002	 1.17937e-002
2612	 2.3818750000e+002	 8.20336e-003
2613	 2.3825000000e+002	 8.70708e-003
2614	 2.3831250000e+002	 6.73885e-003
2615	 2.3837500000e+002	 4.51924e-003
2616	 2.3843750000e+002	 3.55513e-003
2617	 2.3850000000e+002	 4.21702e-003
2618	 2.3856250000e+002	 3.99069e-003
2619	 2.3862500000e+002	 6.36043e-003
2620	 2.3868750000e+002	 9.39482e-003
2621	 2.3875000000e+002	 9.53401e-003
2622	 2.3881250000e+002	 1.03985e-002
2623	 2.3887500000e+002	 6.79220e-003
2624	 2.3893750000e+002	 8.82135e-003
2625	 2.3900000000e+002	 6.96820e-003
2626	 2.3906250000e+002	 9.91032e-003
2627	 2.3912500000e+002	 1.19385e-002
2628	 2.3918750000e+002	 1.04666e-002
2629	 2.3925000000e+002	 7.24001e-003
2630	 2.3931250000e+002	 6.01068e-003
2631	 2.3937500000e+002	 6.50447e-003
2632	 2.3943750000e+002	 9.82670e-003
2633	 2.3950000000e+002	 1.11746e-002
2634	 2.3956250000e+002	 6.70122e-003
2635	 2.3962500000e+002	 6.88579e-003
2636	 2.3968750000e+002	 6.68116e-003
2637	 2.3975000000e+002	 6.68459e-003
2638	 2.3981250000e+002	 1.22281e-002
2639	 2.3987500000e+002	 7.73162e-003
2640	 2.3993750000e+002	 1.39579e-002
2641	 2.4000000000e+002	 1.46368e-002
2642	 2.4006250000e+002	 6.97786e-003
2643	 2.4012500000e+002	 1.73563e-002
2644	 2.4018750000e+002	 1.24482e-002
2645	 2.4025000000e+002	 3.02577e-003
2646	 2.4031250000e+002	 3.91809e-003
2647	 2.4037500000e+002	 4.43650e-003
2648	 2.4043750000e+002	 4.82294e-003
2649	 2.4050000000e+002	 4.22724e-003
2650	 2.4056250000e+002	 7.55762e-003
2651	 2.4062500000e+002	 7.11468e-003
2652	 2.4068750000e+002	 4.52777e-003
2653	 2.4075000000e+002	 1.04533e-002
2654	 2.4081250000e+002	 1.24873e-002
2655	 2.4087500000e+002	 1.15763e-002
2656	 2.4093750000e+002	 1.54282e-002
2657	 2.4100000000e+002	 1.52826e-002
2658	 2.4106250000e+002	 1.00874e-002
2659	 2.4112500000e+002	 5.13875e-003
2660	 2.4118750000e+002	 5.72141e-003
2661	 2.4125000000e+002	 5.40355e-003
2662	 2.4131250000e+002	 7.21342e-003
2663	 2.4137500000e+002	 1.10886e-002
2664	 2.4143750000e+002	 1.08628e-002
2665	 2.4150000000e+002	 1.26081e-002
2666	 2.4156250000e+002	 7.63343e-003
2667	 2.4162500000e+002	 3.27369e-003
2668	 2.4168750000e+002	 6.55443e-003
2669	 2.4175000000e+002	 9.05874e-003
2670	 2.4181250000e+002	 4.20557e-003
2671	 2.4187500000e+002	 8.76790e-003
2672	 2.4193750000e+002	 9.51808e-003
2673	 2.4200000000e+002	 8.51399e-003
2674	 2.4206250000e+002	 7.43778e-003
2675	 2.4212500000e+002	 8.59424e-003
2676	 2.4218750000e+002	 8.20516e-003
2677	 2.4225000000e+002	 3.14030e-003
2678	 2.4231250000e+002	 3.04300e-003
2679	 2.4237500000e+002	 7.59191e-003
2680	 2.4243750000e+002	 9.25506e-003
2681	 2.4250000000e+002	 3.66208e-003
2682	 2.4256250000e+002	 4.56036e-003
2683	 2.4262500000e+002	 6.42297e-003
2684	 2.4268750000e+002	 5.05305e-003
2685	 2.4275000000e+002	 3.14362e-003
2686	 2.4281250000e+002	 5.05149e-003
2687	 2.4287500000e+002	 4.26962e-003
2688	 2.4293750000e+002	 4.49357e-003
2689	 2.4300000000e+002	 7.94796e-003
2690	 2.4306250000e+002	 1.17324e-002
2691	 2.4312500000e+002	 1.27878e-002
2692	 2.4318750000e+002	 7.30273e-003
2693	 2.4325000000e+002	 6.24588e-003
2694	 2.4331250000e+002	 4.38503e-003
2695	 2.4337500000e+002	 7.66179e-003
2696	 2.4343750000e+002	 1.14313e-002
2697	 2.4350000000e+002	 7.70887e-003
2698	 2.4356250000e+002	 1.02591e-002
2699	 2.4362500000e+002	 8.25621e-003
2700	 2.4368750000e+002	 8.71856e-003
2701	 2.4375000000e+002	 1.04421e-002
2702	 2.4381250000e+002	 7.62151e-003
2703	 2.4387500000e+002	 5.97761e-003
2704	 2.4393750000e+002	 4.40990e-003
2705	 2.4400000000e+002	 5.89934e-003
2706	 2.4406250000e+002	 8.45076e-003
2707	 2.4412500000e+002	 9.38876e-003
2708	 2.4418750000e+002	 7.85326e-003
2709	 2.4425000000e+002	 5.55915e-003
2710	 2.4431250000e+002	 8.89415e-003
2711	 2.4437500000e+002	 8.99458e-003
2712	 2.4443750000e+002	 9.76276e-003
2713	 2.4450000000e+002	 1.09465e-002
2714	 2.4456250000e+002	 1.04598e-002
2715	 2.4462500000e+002	 8.46094e-003
2716	 2.4468750000e+002	 7.61563e-003
2717	 2.4475000000e+002	 9.87188e-003
2718	 2.4481250000e+002	 7.67824e-003
2719	 2.4487500000e+002	 7.76624e-003
2720	 2.4493750000e+002	 1.39571e-002
2721	 2.4500000000e+002	 1.09918e-002
2722	 2.4506250000e+002	 6.47425e-003
2723	 2.4512500000e+002	 1.04441e-002
2724	 2.4518750000e+002	 1.38294e-002
2725	 2.4525000000e+002	 4.99130e-003
2726	 2.4531250000e+002	 5.03102e-003
2727	 2.4537500000e+002	 8.33306e-003
2728	 2.4543750000e+002	 8.86932e-003
2729	 2.4550000000e+002	 1.42948e-002
2730	 2.4556250000e+002	 1.07605e-002
2731	 2.4562500000e+002	 1.02122e-002
2732	 2.4568750000e+002	 1.59064e-002
2733	 2.4575000000e+002	 1.35027e-002
2734	 2.4581250000e+002	 8.96675e-003
2735	 2.4587500000e+002	 6.27867e-003
2736	 2.4593750000e+002	 7.65655e-003
2737	 2.4600000000e+002	 7.16161e-003
2738	 2.4606250000e+002	 7.19176e-003
2739	 2.4612500000e+002	 6.93142e-003
2740	 2.4618750000e+002	 8.54573e-003
2741	 2.4625000000e+002	 8.70951e-003
2742	 2.4631250000e+002	 9.66178e-003
2743	 2.4637500000e+002	 8.67569e-003
2744	 2.4643750000e+002	 5.85912e-003
2745	 2.4650000000e+002	 6.86080e-003
2746	 2.4656250000e+002	 1.12828e-002
2747	 2.4662500000e+002	 1.31803e-002
2748	 2.4668750000e+002	 7.20953e-003
2749	 2.4675000000e+002	 8.86468e-003
2750	 2.4681250000e+002	 9.29298e-003
2751	 2.4687500000e+002	 1.27690e-002
2752	 2.4693750000e+002	 1.18554e-002
2753	 2.4700000000e+002	 1.41510e-002
2754	 2.4706250000e+002	 1.58816e-002
2755	 2.4712500000e+002	 1.35794e-002
2756	 2.4718750000e+002	 1.06679e-002
2757	 2.4725000000e+002	 6.02497e-003
2758	 2.4731250000e+002	 7.42490e-003
2759	 2.4737500000e+002	 7.80622e-003
2760	 2.4743750000e+002	 9.88293e-003
2761	 2.4750000000e+002	 1.70467e-002
2762	 2.4756250000e+002	 1.20289e-002
2763	 2.4762500000e+002	 1.20808e-002
2764	 2.4768750000e+002	 8.77053e-003
2765	 2.4775000000e+002	 7.36352e-003
2766	 2.4781250000e+002	 7.30014e-003
2767	 2.4787500000e+002	 5.88895e-003
2768	 2.4793750000e+002	 5.04987e-003
2769	 2.4800000000e+002	 6.35805e-003
2770	 2.4806250000e+002	 6.03420e-003
2771	 2.4812500000e+002	 6.80379e-003
2772	 2.4818750000e+002	 6.64725e-003
2773	 2.4825000000e+002	 5.30631e-003
2774	 2.4831250000e+002	 5.60321e-003
2775	 2.4837500000e+002	 6.45994e-003
2776	 2.4843750000e+002	 4.62416e-003
2777	 2.4850000000e+002	 3.15220e-003
2778	 2.4856250000e+002	 6.60961e-003
2779	 2.4862500000e+002	 7.15880e-003
2780	 2.4868750000e+002	 9.49644e-003
2781	 2.4875000000e+002	 1.28601e-002
2782	 2.4881250000e+002	 6.84518e-003
2783	 2.4887500000e+002	 6.22090e-003
2784	 2.4893750000e+002	 8.53544e-003
2785	 2.4900000000e+002	 6.84637e-003
2786	 2.4906250000e+002	 1.48991e-002
2787	 2.4912500000e+002	 1.28795e-002
2788	 2.4918750000e+002	 4.40166e-003
2789	 2.4925000000e+002	 4.16507e-003
2790	 2.4931250000e+002	 5.79016e-003
2791	 2.4937500000e+002	 6.37696e-003
2792	 2.4943750000e+002	 9.39847e-003
2793	 2.4950000000e+002	 1.13814e-002
2794	 2.4956250000e+002	 5.16026e-003
2795	 2.4962500000e+002	 2.97998e-003
2796	 2.4968750000e+002	 4.84917e-003
2797	 2.4975000000e+002	 5.43878e-003
2798	 2.4981250000e+002	 6.94996e-003
2799	 2.4987500000e+002	 5.77927e-003
2800	 2.4993750000e+002	 9.81141e-003
2801	 2.5000000000e+002	 1.52631e-002
2802	 2.5006250000e+002	 1.32568e-002
2803	 2.5012500000e+002	 1.19585e-002
2804	 2.5018750000e+002	 1.23172e-002
2805	 2.5025000000e+002	 7.39512e-003
2806	 2.5031250000e+002	 7.69656e-003
2807	 2.5037500000e+002	 8.38508e-003
2808	 2.5043750000e+002	 1.31861e-002
2809	 2.5050000000e+002	 1.13484e-002
2810	 2.5056250000e+002	 1.78320e-002
2811	 2.5062500000e+002	 9.86685e-003
2812	 2.5068750000e+002	 8.51644e-003
2813	 2.5075000000e+002	 8.24318e-003
2814	 2.5081250000e+002	 1.14777e-002
2815	 2.5087500000e+002	 2.04729e-002
2816	 2.5093750000e+002	 1.04408e-002
2817	 2.5100000000e+002	 6.17886e-003
2818	 2.5106250000e+002	 1.19233e-002
2819	 2.5112500000e+002	 1.65015e-002
2820	 2.5118750000e+002	 1.22914e-002
2821	 2.5125000000e+002	 9.00025e-003
2822	 2.5131250000e+002	 1.57260e-002
2823	 2.5137500000e+002	 1.76705e-002
2824	 2.5143750000e+002	 1.27287e-002
2825	 2.5150000000e+002	 1.19184e-002
2826	 2.5156250000e+002	 9.64271e-003
2827	 2.5162500000e+002	 1.31142e-002
2828	 2.5168750000e+002	 1.30435e-002
2829	 2.5175000000e+002	 7.08679e-003
2830	 2.5181250000e+002	 1.02145e-002
2831	 2.5187500000e+002	 6.21209e-003
2832	 2.5193750000e+002	 8.65763e-003
2833	 2.5200000000e+002	 1.49268e-002
2834	 2.5206250000e+002	 1.41044e-002
2835	 2.5212500000e+002	 1.12571e-002
2836	 2.5218750000e+002	 1.53385e-002
2837	 2.5225000000e+002	 1.71206e-002
2838	 2.5231250000e+002	 2.73075e-002
2839	 2.5237500000e+002	 1.14015e-002
2840	 2.5243750000e+002	 1.24670e-002
2841	 2.5250000000e+002	 1.52148e-002
2842	 2.5256250000e+002	 1.14784e-002
2843	 2.5262500000e+002	 1.05473e-002
2844	 2.5268750000e+002	 1.23806e-002
2845	 2.5275000000e+002	 1.38093e-002
2846	 2.5281250000e+002	 1.25661e-002
2847	 2.5287500000e+002	 1.13486e-002
2848	 2.5293750000e+002	 1.92462e-002
2849	 2.5300000000e+002	 1.16880e-002
2850	 2.5306250000e+002	 2.09417e-002
2851	 2.5312500000e+002	 2.48388e-002
2852	 2.5318750000e+002	 1.24320e-002
2853	 2.5325000000e+002	 9.84425e-003
2854	 2.5331250000e+002	 1.78781e-002
2855	 2.5337500000e+002	 1.44501e-002
2856	 2.5343750000e+002	 9.18658e-003
2857	 2.5350000000e+002	 1.13943e-002
2858	 2.5356250000e+002	 1.74685e-002
2859	 2.5362500000e+002	 2.54446e-002
2860	 2.5368750000e+002	 2.62894e-002
2861	 2.5375000000e+002	 2.27762e-002
2862	 2.5381250000e+002	 1.60396e-002
2863	 2.5387500000e+002	 3.46108e-003
2864	 2.5393750000e+002	 5.75769e-003
2865	 2.5400000000e+002	 2.05584e-002
2866	 2.5406250000e+002	 1.73547e-002
2867	 2.5412500000e+002	 7.45082e-003
2868	 2.5418750000e+002	 3.19147e-003
2869	 2.5425000000e+002	 5.35248e-003
2870	 2.5431250000e+002	 1.78178e-002
2871	 2.5437500000e+002	 2.57102e-002
2872	 2.5443750000e+002	 2.17812e-002
2873	 2.5450000000e+002	 1.66962e-002
2874	 2.5456250000e+002	 1.56172e-002
2875	 2.5462500000e+002	 1.55134e-002
2876	 2.5468750000e+002	 9.12423e-003
2877	 2.5475000000e+002	 1.16676e-002
2878	 2.5481250000e+002	 1.59293e-002
2879	 2.5487500000e+002	 1.63957e-002
2880	 2.5493750000e+002	 1.54664e-002
2881	 2.5500000000e+002	 1.95215e-002
2882	 2.5506250000e+002	 1.65707e-002
2883	 2.5512500000e+002	 3.09095e-002
2884	 2.5518750000e+002	 1.89408e-002
2885	 2.5525000000e+002	 8.53793e-003
2886	 2.5531250000e+002	 6.58400e-003
2887	 2.5537500000e+002	 7.32564e-003
2888	 2.5543750000e+002	 8.52631e-003
2889	 2.5550000000e+002	 1.25107e-002
2890	 2.5556250000e+002	 1.95228e-002
2891	 2.5562500000e+002	 1.63550e-002
2892	 2.5568750000e+002	 2.52212e-002
2893	 2.5575000000e+002	 2.86417e-002
2894	 2.5581250000e+002	 2.84154e-002
2895	 2.5587500000e+002	 2.47332e-002
2896	 2.5593750000e+002	 1.07019e-002
2897	 2.5600000000e+002	 9.65228e-003
2898	 2.5606250000e+002	 9.12484e-003
2899	 2.5612500000e+002	 1.19554e-002
2900	 2.5618750000e+002	 1.62228e-002
2901	 2.5625000000e+002	 1.92794e-002
2902	 2.5631250000e+002	 2.11964e-002
2903	 2.5637500000e+002	 1.15448e-002
2904	 2.5643750000e+002	 2.01075e-002
2905	 2.5650000000e+002	 1.75810e-002
2906	 2.5656250000e+002	 2.65395e-002
2907	 2.5662500000e+002	 2.84962e-002
2908	 2.5668750000e+002	 2.50059e-002
2909	 2.5675000000e+002	 1.62481e-002
2910	 2.5681250000e+002	 8.94403e-003
2911	 2.5687500000e+002	 2.29810e-002
2912	 2.5693750000e+002	 3.44421e-002
2913	 2.5700000000e+002	 3.45155e-002
2914	 2.5706250000e+002	 3.76131e-002
2915	 2.5712500000e+002	 3.69805e-002
2916	 2.5718750000e+002	 1.54030e-002
2917	 2.5725000000e+002	 1.29194e-002
2918	 2.5731250000e+002	 2.13975e-002
2919	 2.5737500000e+002	 1.74303e-002
2920	 2.5743750000e+002	 1.93241e-002
2921	 2.5750000000e+002	 2.95902e-002
2922	 2.5756250000e+002	 1.52016e-002
2923	 2.5762500000e+002	 1.99185e-002
2924	 2.5768750000e+002	 2.74511e-002
2925	 2.5775000000e+002	 3.36360e-002
2926	 2.5781250000e+002	 3.22953e-002
2927	 2.5787500000e+002	 3.50096e-002
2928	 2.5793750000e+002	 3.33353e-002
2929	 2.5800000000e+002	 1.72741e-002
2930	 2.5806250000e+002	 1.11070e-002
2931	 2.5812500000e+002	 1.76998e-002
2932	 2.5818750000e+002	 2.83610e-002
2933	 2.5825000000e+002	 4.13427e-002
2934	 2.5831250000e+002	 5.24023e-002
2935	 2.5837500000e+002	 3.31394e-002
2936	 2.5843750000e+002	 3.18510e-002
2937	 2.5850000000e+002	 3.80684e-002
2938	 2.5856250000e+002	 4.38629e-002
2939	 2.5862500000e+002	 8.14631e-002
2940	 2.5868750000e+002	 6.54312e-002
2941	 2.5875000000e+002	 2.92856e-002
2942	 2.5881250000e+002	 4.10980e-002
2943	 2.5887500000e+002	 4.85554e-002
2944	 2.5893750000e+002	 3.39690e-002
2945	 2.5900000000e+002	 3.57940e-002
2946	 2.5906250000e+002	 2.72646e-002
2947	 2.5912500000e+002	 4.16077e-002
2948	 2.5918750000e+002	 6.22630e-002
2949	 2.5925000000e+002	 5.70220e-002
2950	 2.5931250000e+002	 3.96985e-002
2951	 2.5937500000e+002	 4.75649e-002
2952	 2.5943750000e+002	 3.79685e-002
2953	 2.5950000000e+002	 3.37573e-002
2954	 2.5956250000e+002	 2.81745e-002
2955	 2.5962500000e+002	 2.61971e-002
2956	 2.5968750000e+002	 4.33272e-002
2957	 2.5975000000e+002	 4.96683e-002
2958	 2.5981250000e+002	 5.73939e-002
2959	 2.5987500000e+002	 9.77861e-002
2960	 2.5993750000e+002	 6.30783e-002
2961	 2.6000000000e+002	 8.34991e-002
2962	 2.6006250000e+002	 1.10468e-001
2963	 2.6012500000e+002	 7.17176e-002
2964	 2.6018750000e+002	 2.07468e-002
2965	 2.6025000000e+002	 3.21848e-002
2966	 2.6031250000e+002	 3.67626e-002
2967	 2.6037500000e+002	 5.41536e-002
2968	 2.6043750000e+002	 3.57148e-002
2969	 2.6050000000e+002	 3.93845e-002
2970	 2.6056250000e+002	 4.21974e-002
2971	 2.6062500000e+002	 4.26895e-002
2972	 2.6068750000e+002	 7.55243e-002
2973	 2.6075000000e+002	 8.24264e-002
2974	 2.6081250000e+002	 1.12913e-001
2975	 2.6087500000e+002	 7.44918e-002
2976	 2.6093750000e+002	 4.83491e-002
2977	 2.6100000000e+002	 5.07843e-002
2978	 2.6106250000e+002	 4.71343e-002
2979	 2.6112500000e+002	 2.34375e-002
2980	 2.6118750000e+002	 4.80098e-002
2981	 2.6125000000e+002	 9.85751e-002
2982	 2.6131250000e+002	 9.76559e-002
2983	 2.6137500000e+002	 3.64023e-002
2984	 2.6143750000e+002	 5.23812e-002
2985	 2.6150000000e+002	 9.22709e-002
2986	 2.6156250000e+002	 4.34214e-002
2987	 2.6162500000e+002	 2.95284e-002
2988	 2.6168750000e+002	 5.92209e-002
2989	 2.6175000000e+002	 7.36110e-002
2990	 2.6181250000e+002	 8.23611e-002
2991	 2.6187500000e+002	 7.32136e-002
2992	 2.6193750000e+002	 6.13717e-002
2993	 2.6200000000e+002	 3.27878e-002
2994	 2.6206250000e+002	 4.07318e-002
2995	 2.6212500000e+002	 7.21515e-002
2996	 2.6218750000e+002	 6.30526e-002
2997	 2.6225000000e+002	 8.38485e-002
2998	 2.6231250000e+002	 1.41677e-001
2999	 2.6237500000e+002	 6.56797e-002
3000	 2.6243750000e+002	 3.88779e-002
3001	 2.6250000000e+002	 1.08586e-001
3002	 2.6256250000e+002	 1.86037e-001
3003	 2.6262500000e+002	 1.58352e-001
3004	 2.6268750000e+002	 9.38444e-002
3005	 2.6275000000e+002	 1.09430e-001
3006	 2.6281250000e+002	 1.96182e-001
3007	 2.6287500000e+002	 1.10354e-001
3008	 2.6293750000e+002	 7.32000e-002
3009	 2.6300000000e+002	 7.39474e-002
3010	 2.6306250000e+002	 9.58239e-002
3011	 2.6312500000e+002	 2.09117e-001
3012	 2.6318750000e+002	 1.52603e-001
3013	 2.6325000000e+002	 8.72150e-002
3014	 2.6331250000e+002	 4.44092e-002
3015	 2.6337500000e+002	 6.46260e-002
3016	 2.6343750000e+002	 9.59007e-002
3017	 2.6350000000e+002	 8.91121e-002
3018	 2.6356250000e+002	 3.26332e-002
3019	 2.6362500000e+002	 7.31568e-002
3020	 2.6368750000e+002	 1.27285e-001
3021	 2.6375000000e+002	 1.09220e-001
3022	 2.6381250000e+002	 1.99089e-001
3023	 2.6387500000e+002	 2.60413e-001
3024	 2.6393750000e+002	 2.24683e-001
3025	 2.6400000000e+002	 2.35224e-001
3026	 2.6406250000e+002	 1.52572e-001
3027	 2.6412500000e+002	 1.23282e-001
3028	 2.6418750000e+002	 1.50833e-001
3029	 2.6425000000e+002	 2.10535e-001
3030	 2.6431250000e+002	 2.60858e-001
3031	 2.6437500000e+002	 1.28213e-001
3032	 2.6443750000e+002	 7.81744e-002
3033	 2.6450000000e+002	 1.44704e-001
3034	 2.6456250000e+002	 2.20305e-001
3035	 2.6462500000e+002	 1.73689e-001
3036	 2.6468750000e+002	 1.49946e-001
3037	 2.6475000000e+002	 8.28734e-002
3038	 2.6481250000e+002	 2.54776e-001
3039	 2.6487500000e+002	 5.25163e-001
3040	 2.6493750000e+002	 3.19145e-001
3041	 2.6500000000e+002	 2.71604e-001
3042	 2.6506250000e+002	 1.42990e-001
3043	 2.6512500000e+002	 1.96748e-001
3044	 2.6518750000e+002	 1.66360e-001
3045	 2.6525000000e+002	 1.16942e-001
3046	 2.6531250000e+002	 1.24601e-001
3047	 2.6537500000e+002	 1.76541e-001
3048	 2.6543750000e+002	 1.11578e-001
3049	 2.6550000000e+002	 1.76533e-001
3050	 2.6556250000e+002	 2.61291e-001
3051	 2.6562500000e+002	 2.52806e-001
3052	 2.6568750000e+002	 1.59184e-001
3053	 2.6575000000e+002	 1.54618e-001
3054	 2.6581250000e+002	 1.23740e-001
3055	 2.6587500000e+002	 1.16060e-001
3056	 2.6593750000e+002	 2.99665e-001
3057	 2.6600000000e+002	 3.32491e-001
3058	 2.6606250000e+002	 2.85027e-001
3059	 2.6612500000e+002	 3.84953e-001
3060	 2.6618750000e+002	 3.72928e-001
3061	 2.6625000000e+002	 2.41704e-001
3062	 2.6631250000e+002	 3.44211e-001
3063	 2.6637500000e+002	 3.47275e-001
3064	 2.6643750000e+002	 3.18441e-001
3065	 2.6650000000e+002	 3.57965e-001
3066	 2.6656250000e+002	 3.33612e-001
3067	 2.6662500000e+002	 3.73146e-001
3068	 2.6668750000e+002	 2.53446e-001
3069	 2.6675000000e+002	 2.72912e-001
3070	 2.6681250000e+002	 3.98986e-001
3071	 2.6687500000e+002	 2.89811e-001
3072	 2.6693750000e+002	 1.96788e-001
3073	 2.6700000000e+002	 3.10649e-001
3074	 2.6706250000e+002	 3.19688e-001
3075	 2.6712500000e+002	 2.81796e-001
3076	 2.6718750000e+002	 2.88613e-001
3077	 2.6725000000e+002	 2.07258e-001
3078	 2.6731250000e+002	 2.08314e-001
3079	 2.6737500000e+002	 2.82029e-001
3080	 2.6743750000e+002	 4.81694e-001
3081	 2.6750000000e+002	 2.78052e-001
3082	 2.6756250000e+002	 3.91908e-001
3083	 2.6762500000e+002	 5.72201e-001
3084	 2.6768750000e+002	 4.90040e-001
3085	 2.6775000000e+002	 2.87065e-001
3086	 2.6781250000e+002	 1.91120e-001
3087	 2.6787500000e+002	 2.23091e-001
3088	 2.6793750000e+002	 1.75824e-001
3089	 2.6800000000e+002	 1.98952e-001
3090	 2.6806250000e+002	 1.98275e-001
3091	 2.6812500000e+002	 2.33590e-001
3092	 2.6818750000e+002	 3.55709e-001
3093	 2.6825000000e+002	 3.19978e-001
3094	 2.6831250000e+002	 2.01095e-001
3095	 2.6837500000e+002	 3.29480e-001
3096	 2.6843750000e+002	 3.12965e-001
3097	 2.6850000000e+002	 2.51708e-001
3098	 2.6856250000e+002	 2.06401e-001
3099	 2.6862500000e+002	 3.35945e-001
3100	 2.6868750000e+002	 4.39086e-001
3101	 2.6875000000e+002	 2.67971e-001
3102	 2.6881250000e+002	 1.95543e-001
3103	 2.6887500000e+002	 1.41387e-001
3104	 2.6893750000e+002	 2.05130e-001
3105	 2.6900000000e+002	 1.51953e-001
3106	 2.6906250000e+002	 1.23719e-001
3107	 2.6912500000e+002	 2.04695e-001
3108	 2.6918750000e+002	 3.45417e-001
3109	 2.6925000000e+002	 1.94843e-001
3110	 2.6931250000e+002	 1.82184e-001
3111	 2.6937500000e+002	 1.57016e-001
3112	 2.6943750000e+002	 8.25379e-002
3113	 2.6950000000e+002	 1.30991e-001
3114	 2.6956250000e+002	 1.10713e-001
3115	 2.6962500000e+002	 8.13550e-002
3116	 2.6968750000e+002	 1.12966e-001
3117	 2.6975000000e+002	 1.00836e-001
3118	 2.6981250000e+002	 7.93653e-002
3119	 2.6987500000e+002	 1.18986e-001
3120	 2.6993750000e+002	 1.14218e-001
3121	 2.7000000000e+002	 1.48731e-001
3122	 2.7006250000e+002	 1.68241e-001
3123	 2.7012500000e+002	 1.08042e-001
3124	 2.7018750000e+002	 1.17739e-001
3125	 2.7025000000e+002	 9.25522e-002
3126	 2.7031250000e+002	 5.28635e-002
3127	 2.7037500000e+002	 7.36949e-002
3128	 2.7043750000e+002	 5.07498e-002
3129	 2.7050000000e+002	 6.21158e-002
3130	 2.7056250000e+002	 4.39198e-002
3131	 2.7062500000e+002	 3.55160e-002
3132	 2.7068750000e+002	 5.40368e-002
3133	 2.7075000000e+002	 3.25464e-002
3134	 2.7081250000e+002	 4.60608e-002
3135	 2.7087500000e+002	 5.81649e-002
3136	 2.7093750000e+002	 7.66187e-002
3137	 2.7100000000e+002	 1.38727e-001
3138	 2.7106250000e+002	 1.03779e-001
3139	 2.7112500000e+002	 1.29689e-001
3140	 2.7118750000e+002	 1.23864e-001
3141	 2.7125000000e+002	 6.51317e-002
3142	 2.7131250000e+002	 5.09248e-002
3143	 2.7137500000e+002	 7.45260e-002
3144	 2.7143750000e+002	 5.05530e-002
3145	 2.7150000000e+002	 4.26520e-002
3146	 2.7156250000e+002	 5.02040e-002
3147	 2.7162500000e+002	 8.38977e-002
3148	 2.7168750000e+002	 6.97746e-002
3149	 2.7175000000e+002	 5.82495e-002
3150	 2.7181250000e+002	 6.80453e-002
3151	 2.7187500000e+002	 8.84844e-002
3152	 2.7193750000e+002	 6.79596e-002
3153	 2.7200000000e+002	 5.64924e-002
3154	 2.7206250000e+002	 4.35485e-002
3155	 2.7212500000e+002	 1.89739e-002
3156	 2.7218750000e+002	 3.70450e-002
3157	 2.7225000000e+002	 4.07587e-002
3158	 2.7231250000e+002	 5.91538e-002
3159	 2.7237500000e+002	 8.61469e-002
3160	 2.7243750000e+002	 3.83011e-002
3161	 2.7250000000e+002	 3.24277e-002
3162	 2.7256250000e+002	 2.05800e-002
3163	 2.7262500000e+002	 1.56967e-002
3164	 2.7268750000e+002	 3.08339e-002
3165	 2.7275000000e+002	 3.21155e-002
3166	 2.7281250000e+002	 5.35042e-002
3167	 2.7287500000e+002	 5.76498e-002
3168	 2.7293750000e+002	 6.60240e-002
3169	 2.7300000000e+002	 7.77510e-002
3170	 2.7306250000e+002	 5.42450e-002
3171	 2.7312500000e+002	 3.38416e-002
3172	 2.7318750000e+002	 3.06831e-002
3173	 2.7325000000e+002	 3.00811e-002
3174	 2.7331250000e+002	 3.89937e-002
3175	 2.7337500000e+002	 2.24114e-002
3176	 2.7343750000e+002	 2.43858e-002
3177	 2.7350000000e+002	 4.67853e-002
3178	 2.7356250000e+002	 5.06662e-002
3179	 2.7362500000e+002	 4.11187e-002
3180	 2.7368750000e+002	 2.09012e-002
3181	 2.7375000000e+002	 4.71877e-002
3182	 2.7381250000e+002	 7.04974e-002
3183	 2.7387500000e+002	 5.25869e-002
3184	 2.7393750000e+002	 2.88252e-002
3185	 2.7400000000e+002	 1.10493e-002
3186	 2.7406250000e+002	 1.93468e-002
3187	 2.7412500000e+002	 2.38621e-002
3188	 2.7418750000e+002	 2.28375e-002
3189	 2.7425000000e+002	 2.35642e-002
3190	 2.7431250000e+002	 1.68515e-002
3191	 2.7437500000e+002	 2.45004e-002
3192	 2.7443750000e+002	 7.29485e-002
3193	 2.7450000000e+002	 7.36743e-002
3194	 2.7456250000e+002	 2.73095e-002
3195	 2.7462500000e+002	 2.84416e-002
3196	 2.7468750000e+002	 3.86995e-002
3197	 2.7475000000e+002	 3.79704e-002
3198	 2.7481250000e+002	 2.40839e-002
3199	 2.7487500000e+002	 2.11786e-002
3200	 2.7493750000e+002	 1.80898e-002
3201	 2.7500000000e+002	 2.54492e-002
TagsBegin:	 	 
OverLoad:	 	False
AverageNumber: []	 	 5.40000e+001
OverLoadRatio: []	 	 1.19209e-007
TagsEnd:	 	 
TagScalesBegin:	 	 
TagScalesEnd:	 	 
