Header Size:	 78	 
Pulse Version:	 42	 
Decimal Symbol:	.	 
Date Format:	dd-MM-yyyy	 
Time Format:	HH:mm:ss:mmm	 
Data Type:	Real	 
Slice:	False	 
Z-Axis type:	Linear	 
Z-Axis size:	1	 
Z-Axis unit:	 	 
Z-Axis first value:	 0.0000000000e+000	 
Z-Axis delta:	 1.0000000000e+000	 
X-Axis type:	Linear	 
X-Axis size:	3201	 
X-Axis unit:	Hz	 
X-Axis first value:	 7.5000000000e+001	 
X-Axis delta:	 6.2500000000e-002	 
	 	 
AmplitudeUnit:	Pa	 
Analyzer:	FFT_Spectrum_Averaging	 
AnalyzerName:	FFT Analyzer	 
	 	 
	 	 
Bipolar:	False	 
CenterFrequency:	 1.7500000000e+002	 
	 	 
	 	 
	 	 
	 	 
dBReference:	 4.0000000000e-010	 
	 	 
	 	 
	 	 
Domain:	1	 
Function:	Autospectrum	 
	 	 
InputRange:	 2.2376582278e+002	 
	 	 
	 	 
MultiBufferName:	Input	 
NBW:	 1.5000000000e+000	 
	 	 
OverlapFailed:	False	 
Overrun:	False	 
Power:	True	 
PowerUnit:	Pa²	 
	 	 
RecordLength:	 1.6000000000e+001	 
ReducedSize:	True	 
	 	 
	 	 
	 	 
	 	 
	 	 
SamplingRatio:	 1.2800000000e+000	 
Signal:	p_A_source	 
	 	 
SignalUnit:	Pa	 
	 	 
	 	 
	 	 
Title:	Autospectrum(p_A_source) - Input	 
Title1:	Working : Input : Input : FFT Analyzer	 
	 	 
	 	 
Weight:	0	 
ZoomOn:	True	 
	 	 
TemplateName:	Working	 
MeasurementName:	Input	 
MeasurementSlice:	False	 
	 	 
DeltaFrequency:	 6.2500000000e-002	 
	 	 
EnvelopeOn:	False	 
	 	 
	 	 
	 	 
Z-index:	 	1
Date:	 	05-03-2025
Time:	 	12:13:03:985
Relative time:	 	 0.00000e+000
Z-axis:	 	 0.0000000000e+000
1	 7.5000000000e+001	 1.84299e-003
2	 7.5062500000e+001	 1.63399e-003
3	 7.5125000000e+001	 1.84778e-003
4	 7.5187500000e+001	 2.30417e-003
5	 7.5250000000e+001	 2.48314e-003
6	 7.5312500000e+001	 3.15335e-003
7	 7.5375000000e+001	 3.20251e-003
8	 7.5437500000e+001	 2.61487e-003
9	 7.5500000000e+001	 2.36104e-003
10	 7.5562500000e+001	 2.84566e-003
11	 7.5625000000e+001	 3.11788e-003
12	 7.5687500000e+001	 2.32278e-003
13	 7.5750000000e+001	 4.15603e-003
14	 7.5812500000e+001	 4.19876e-003
15	 7.5875000000e+001	 1.78336e-003
16	 7.5937500000e+001	 4.09259e-003
17	 7.6000000000e+001	 3.85733e-003
18	 7.6062500000e+001	 3.03168e-003
19	 7.6125000000e+001	 2.96462e-003
20	 7.6187500000e+001	 1.72846e-003
21	 7.6250000000e+001	 2.38149e-003
22	 7.6312500000e+001	 1.79463e-003
23	 7.6375000000e+001	 1.49836e-003
24	 7.6437500000e+001	 2.23427e-003
25	 7.6500000000e+001	 2.57175e-003
26	 7.6562500000e+001	 2.15941e-003
27	 7.6625000000e+001	 3.04187e-003
28	 7.6687500000e+001	 2.55814e-003
29	 7.6750000000e+001	 2.13409e-003
30	 7.6812500000e+001	 2.48429e-003
31	 7.6875000000e+001	 2.46132e-003
32	 7.6937500000e+001	 2.12105e-003
33	 7.7000000000e+001	 1.11120e-003
34	 7.7062500000e+001	 1.41030e-003
35	 7.7125000000e+001	 1.69858e-003
36	 7.7187500000e+001	 1.99180e-003
37	 7.7250000000e+001	 2.13006e-003
38	 7.7312500000e+001	 2.40204e-003
39	 7.7375000000e+001	 1.80541e-003
40	 7.7437500000e+001	 2.02081e-003
41	 7.7500000000e+001	 1.09363e-003
42	 7.7562500000e+001	 6.04690e-004
43	 7.7625000000e+001	 1.46133e-003
44	 7.7687500000e+001	 3.34430e-003
45	 7.7750000000e+001	 2.87599e-003
46	 7.7812500000e+001	 4.18734e-003
47	 7.7875000000e+001	 3.37703e-003
48	 7.7937500000e+001	 2.51838e-003
49	 7.8000000000e+001	 6.66014e-004
50	 7.8062500000e+001	 1.00087e-003
51	 7.8125000000e+001	 2.28982e-003
52	 7.8187500000e+001	 2.74563e-003
53	 7.8250000000e+001	 3.21690e-003
54	 7.8312500000e+001	 2.27889e-003
55	 7.8375000000e+001	 1.90470e-003
56	 7.8437500000e+001	 2.10383e-003
57	 7.8500000000e+001	 1.80402e-003
58	 7.8562500000e+001	 1.15957e-003
59	 7.8625000000e+001	 1.87471e-003
60	 7.8687500000e+001	 2.26319e-003
61	 7.8750000000e+001	 3.24136e-003
62	 7.8812500000e+001	 2.03137e-003
63	 7.8875000000e+001	 1.88411e-003
64	 7.8937500000e+001	 2.30900e-003
65	 7.9000000000e+001	 2.31849e-003
66	 7.9062500000e+001	 3.78240e-003
67	 7.9125000000e+001	 2.23741e-003
68	 7.9187500000e+001	 1.48235e-003
69	 7.9250000000e+001	 3.01434e-003
70	 7.9312500000e+001	 2.74829e-003
71	 7.9375000000e+001	 3.29240e-003
72	 7.9437500000e+001	 1.70938e-003
73	 7.9500000000e+001	 2.09780e-003
74	 7.9562500000e+001	 1.90199e-003
75	 7.9625000000e+001	 2.28967e-003
76	 7.9687500000e+001	 4.64931e-003
77	 7.9750000000e+001	 2.88550e-003
78	 7.9812500000e+001	 1.52941e-003
79	 7.9875000000e+001	 1.99143e-003
80	 7.9937500000e+001	 2.02445e-003
81	 8.0000000000e+001	 2.99854e-003
82	 8.0062500000e+001	 2.05334e-003
83	 8.0125000000e+001	 2.26636e-003
84	 8.0187500000e+001	 2.44258e-003
85	 8.0250000000e+001	 2.87242e-003
86	 8.0312500000e+001	 1.94494e-003
87	 8.0375000000e+001	 1.45091e-003
88	 8.0437500000e+001	 1.26797e-003
89	 8.0500000000e+001	 2.60899e-003
90	 8.0562500000e+001	 2.59831e-003
91	 8.0625000000e+001	 2.53809e-003
92	 8.0687500000e+001	 2.25751e-003
93	 8.0750000000e+001	 2.42840e-003
94	 8.0812500000e+001	 1.89032e-003
95	 8.0875000000e+001	 2.81804e-003
96	 8.0937500000e+001	 2.48937e-003
97	 8.1000000000e+001	 1.32036e-003
98	 8.1062500000e+001	 1.43582e-003
99	 8.1125000000e+001	 1.50741e-003
100	 8.1187500000e+001	 1.27140e-003
101	 8.1250000000e+001	 1.70104e-003
102	 8.1312500000e+001	 1.75284e-003
103	 8.1375000000e+001	 2.23662e-003
104	 8.1437500000e+001	 1.66550e-003
105	 8.1500000000e+001	 1.59310e-003
106	 8.1562500000e+001	 2.14317e-003
107	 8.1625000000e+001	 1.96602e-003
108	 8.1687500000e+001	 2.26521e-003
109	 8.1750000000e+001	 2.74183e-003
110	 8.1812500000e+001	 3.29148e-003
111	 8.1875000000e+001	 2.80672e-003
112	 8.1937500000e+001	 2.12550e-003
113	 8.2000000000e+001	 2.18816e-003
114	 8.2062500000e+001	 1.81961e-003
115	 8.2125000000e+001	 2.59555e-003
116	 8.2187500000e+001	 4.58949e-003
117	 8.2250000000e+001	 4.93692e-003
118	 8.2312500000e+001	 4.64890e-003
119	 8.2375000000e+001	 4.99296e-003
120	 8.2437500000e+001	 3.07568e-003
121	 8.2500000000e+001	 2.03763e-003
122	 8.2562500000e+001	 2.11101e-003
123	 8.2625000000e+001	 2.81873e-003
124	 8.2687500000e+001	 3.04408e-003
125	 8.2750000000e+001	 2.48551e-003
126	 8.2812500000e+001	 2.89339e-003
127	 8.2875000000e+001	 3.84664e-003
128	 8.2937500000e+001	 1.57950e-003
129	 8.3000000000e+001	 2.21080e-003
130	 8.3062500000e+001	 3.25230e-003
131	 8.3125000000e+001	 2.06030e-003
132	 8.3187500000e+001	 1.65894e-003
133	 8.3250000000e+001	 1.95030e-003
134	 8.3312500000e+001	 1.76123e-003
135	 8.3375000000e+001	 3.54930e-003
136	 8.3437500000e+001	 3.61056e-003
137	 8.3500000000e+001	 1.76895e-003
138	 8.3562500000e+001	 1.90277e-003
139	 8.3625000000e+001	 2.23617e-003
140	 8.3687500000e+001	 2.57105e-003
141	 8.3750000000e+001	 2.15316e-003
142	 8.3812500000e+001	 1.80777e-003
143	 8.3875000000e+001	 2.26127e-003
144	 8.3937500000e+001	 2.41961e-003
145	 8.4000000000e+001	 2.36216e-003
146	 8.4062500000e+001	 1.19614e-003
147	 8.4125000000e+001	 1.63780e-003
148	 8.4187500000e+001	 2.62193e-003
149	 8.4250000000e+001	 3.01951e-003
150	 8.4312500000e+001	 2.91941e-003
151	 8.4375000000e+001	 1.70209e-003
152	 8.4437500000e+001	 1.86291e-003
153	 8.4500000000e+001	 2.23284e-003
154	 8.4562500000e+001	 4.18472e-003
155	 8.4625000000e+001	 2.36032e-003
156	 8.4687500000e+001	 3.49520e-003
157	 8.4750000000e+001	 5.19590e-003
158	 8.4812500000e+001	 3.54264e-003
159	 8.4875000000e+001	 2.42082e-003
160	 8.4937500000e+001	 1.75634e-003
161	 8.5000000000e+001	 1.64265e-003
162	 8.5062500000e+001	 2.06525e-003
163	 8.5125000000e+001	 2.56025e-003
164	 8.5187500000e+001	 2.49524e-003
165	 8.5250000000e+001	 1.10914e-003
166	 8.5312500000e+001	 1.17246e-003
167	 8.5375000000e+001	 2.06193e-003
168	 8.5437500000e+001	 2.56399e-003
169	 8.5500000000e+001	 1.19448e-003
170	 8.5562500000e+001	 8.16992e-004
171	 8.5625000000e+001	 1.62772e-003
172	 8.5687500000e+001	 1.36748e-003
173	 8.5750000000e+001	 2.79985e-003
174	 8.5812500000e+001	 2.20871e-003
175	 8.5875000000e+001	 6.86883e-004
176	 8.5937500000e+001	 1.08132e-003
177	 8.6000000000e+001	 2.46297e-003
178	 8.6062500000e+001	 2.79170e-003
179	 8.6125000000e+001	 1.67333e-003
180	 8.6187500000e+001	 4.17284e-003
181	 8.6250000000e+001	 4.69557e-003
182	 8.6312500000e+001	 3.06334e-003
183	 8.6375000000e+001	 2.44151e-003
184	 8.6437500000e+001	 1.24965e-003
185	 8.6500000000e+001	 1.83018e-003
186	 8.6562500000e+001	 3.53891e-003
187	 8.6625000000e+001	 3.33981e-003
188	 8.6687500000e+001	 2.73380e-003
189	 8.6750000000e+001	 1.41074e-003
190	 8.6812500000e+001	 1.96081e-003
191	 8.6875000000e+001	 2.88327e-003
192	 8.6937500000e+001	 2.17200e-003
193	 8.7000000000e+001	 1.54975e-003
194	 8.7062500000e+001	 3.00050e-003
195	 8.7125000000e+001	 2.12867e-003
196	 8.7187500000e+001	 3.66096e-003
197	 8.7250000000e+001	 2.88665e-003
198	 8.7312500000e+001	 2.61722e-003
199	 8.7375000000e+001	 2.45937e-003
200	 8.7437500000e+001	 2.32508e-003
201	 8.7500000000e+001	 1.92227e-003
202	 8.7562500000e+001	 3.66550e-003
203	 8.7625000000e+001	 4.56529e-003
204	 8.7687500000e+001	 2.67077e-003
205	 8.7750000000e+001	 2.66663e-003
206	 8.7812500000e+001	 2.78618e-003
207	 8.7875000000e+001	 4.31055e-003
208	 8.7937500000e+001	 5.40270e-003
209	 8.8000000000e+001	 3.96911e-003
210	 8.8062500000e+001	 1.64059e-003
211	 8.8125000000e+001	 2.56497e-003
212	 8.8187500000e+001	 2.90444e-003
213	 8.8250000000e+001	 2.93925e-003
214	 8.8312500000e+001	 4.04090e-003
215	 8.8375000000e+001	 3.41698e-003
216	 8.8437500000e+001	 3.73687e-003
217	 8.8500000000e+001	 5.02923e-003
218	 8.8562500000e+001	 4.71226e-003
219	 8.8625000000e+001	 3.75873e-003
220	 8.8687500000e+001	 3.50162e-003
221	 8.8750000000e+001	 4.05120e-003
222	 8.8812500000e+001	 3.52341e-003
223	 8.8875000000e+001	 5.53358e-003
224	 8.8937500000e+001	 4.54219e-003
225	 8.9000000000e+001	 3.03218e-003
226	 8.9062500000e+001	 3.36403e-003
227	 8.9125000000e+001	 4.10572e-003
228	 8.9187500000e+001	 4.46551e-003
229	 8.9250000000e+001	 2.60714e-003
230	 8.9312500000e+001	 3.72370e-003
231	 8.9375000000e+001	 3.29340e-003
232	 8.9437500000e+001	 2.06883e-003
233	 8.9500000000e+001	 4.51089e-003
234	 8.9562500000e+001	 5.40165e-003
235	 8.9625000000e+001	 3.44167e-003
236	 8.9687500000e+001	 3.47417e-003
237	 8.9750000000e+001	 4.90829e-003
238	 8.9812500000e+001	 3.82248e-003
239	 8.9875000000e+001	 3.63298e-003
240	 8.9937500000e+001	 7.17701e-003
241	 9.0000000000e+001	 4.55153e-003
242	 9.0062500000e+001	 3.00897e-003
243	 9.0125000000e+001	 2.44965e-003
244	 9.0187500000e+001	 3.02919e-003
245	 9.0250000000e+001	 2.84165e-003
246	 9.0312500000e+001	 1.96583e-003
247	 9.0375000000e+001	 2.80062e-003
248	 9.0437500000e+001	 4.67579e-003
249	 9.0500000000e+001	 5.13666e-003
250	 9.0562500000e+001	 5.79247e-003
251	 9.0625000000e+001	 6.02154e-003
252	 9.0687500000e+001	 6.97447e-003
253	 9.0750000000e+001	 5.15769e-003
254	 9.0812500000e+001	 5.03199e-003
255	 9.0875000000e+001	 2.90498e-003
256	 9.0937500000e+001	 4.27942e-003
257	 9.1000000000e+001	 5.59959e-003
258	 9.1062500000e+001	 2.74795e-003
259	 9.1125000000e+001	 1.37601e-003
260	 9.1187500000e+001	 3.85501e-003
261	 9.1250000000e+001	 4.27901e-003
262	 9.1312500000e+001	 2.72364e-003
263	 9.1375000000e+001	 4.69685e-003
264	 9.1437500000e+001	 4.24202e-003
265	 9.1500000000e+001	 2.43482e-003
266	 9.1562500000e+001	 3.06962e-003
267	 9.1625000000e+001	 4.70502e-003
268	 9.1687500000e+001	 5.41582e-003
269	 9.1750000000e+001	 7.31286e-003
270	 9.1812500000e+001	 5.05267e-003
271	 9.1875000000e+001	 4.22274e-003
272	 9.1937500000e+001	 4.76967e-003
273	 9.2000000000e+001	 3.38224e-003
274	 9.2062500000e+001	 1.67988e-003
275	 9.2125000000e+001	 3.22088e-003
276	 9.2187500000e+001	 3.68238e-003
277	 9.2250000000e+001	 4.29192e-003
278	 9.2312500000e+001	 5.94001e-003
279	 9.2375000000e+001	 6.40414e-003
280	 9.2437500000e+001	 3.64953e-003
281	 9.2500000000e+001	 3.37873e-003
282	 9.2562500000e+001	 3.71603e-003
283	 9.2625000000e+001	 3.26848e-003
284	 9.2687500000e+001	 3.54796e-003
285	 9.2750000000e+001	 4.18506e-003
286	 9.2812500000e+001	 5.00521e-003
287	 9.2875000000e+001	 9.17031e-003
288	 9.2937500000e+001	 1.07154e-002
289	 9.3000000000e+001	 4.56009e-003
290	 9.3062500000e+001	 1.12770e-002
291	 9.3125000000e+001	 1.44018e-002
292	 9.3187500000e+001	 7.01564e-003
293	 9.3250000000e+001	 4.50596e-003
294	 9.3312500000e+001	 6.38162e-003
295	 9.3375000000e+001	 1.07310e-002
296	 9.3437500000e+001	 5.67271e-003
297	 9.3500000000e+001	 2.16215e-003
298	 9.3562500000e+001	 3.84428e-003
299	 9.3625000000e+001	 7.32222e-003
300	 9.3687500000e+001	 7.34179e-003
301	 9.3750000000e+001	 7.05268e-003
302	 9.3812500000e+001	 7.06353e-003
303	 9.3875000000e+001	 4.57114e-003
304	 9.3937500000e+001	 3.85515e-003
305	 9.4000000000e+001	 2.71967e-003
306	 9.4062500000e+001	 1.93446e-003
307	 9.4125000000e+001	 2.69410e-003
308	 9.4187500000e+001	 3.10204e-003
309	 9.4250000000e+001	 3.72731e-003
310	 9.4312500000e+001	 3.89372e-003
311	 9.4375000000e+001	 8.32551e-003
312	 9.4437500000e+001	 8.06308e-003
313	 9.4500000000e+001	 5.46698e-003
314	 9.4562500000e+001	 7.11511e-003
315	 9.4625000000e+001	 6.07309e-003
316	 9.4687500000e+001	 3.65962e-003
317	 9.4750000000e+001	 4.03878e-003
318	 9.4812500000e+001	 5.93442e-003
319	 9.4875000000e+001	 7.64930e-003
320	 9.4937500000e+001	 5.06002e-003
321	 9.5000000000e+001	 4.08541e-003
322	 9.5062500000e+001	 7.32444e-003
323	 9.5125000000e+001	 1.07875e-002
324	 9.5187500000e+001	 7.06310e-003
325	 9.5250000000e+001	 8.94953e-003
326	 9.5312500000e+001	 7.39392e-003
327	 9.5375000000e+001	 6.77948e-003
328	 9.5437500000e+001	 1.01139e-002
329	 9.5500000000e+001	 1.24750e-002
330	 9.5562500000e+001	 7.48843e-003
331	 9.5625000000e+001	 5.35213e-003
332	 9.5687500000e+001	 7.21599e-003
333	 9.5750000000e+001	 7.29198e-003
334	 9.5812500000e+001	 4.68008e-003
335	 9.5875000000e+001	 4.78357e-003
336	 9.5937500000e+001	 6.63660e-003
337	 9.6000000000e+001	 7.42144e-003
338	 9.6062500000e+001	 8.38417e-003
339	 9.6125000000e+001	 6.12702e-003
340	 9.6187500000e+001	 1.14112e-002
341	 9.6250000000e+001	 1.13384e-002
342	 9.6312500000e+001	 6.56197e-003
343	 9.6375000000e+001	 1.02383e-002
344	 9.6437500000e+001	 1.30846e-002
345	 9.6500000000e+001	 9.45686e-003
346	 9.6562500000e+001	 9.33205e-003
347	 9.6625000000e+001	 1.01278e-002
348	 9.6687500000e+001	 9.49719e-003
349	 9.6750000000e+001	 8.91321e-003
350	 9.6812500000e+001	 1.63420e-002
351	 9.6875000000e+001	 1.46613e-002
352	 9.6937500000e+001	 1.04277e-002
353	 9.7000000000e+001	 8.56160e-003
354	 9.7062500000e+001	 1.56960e-002
355	 9.7125000000e+001	 1.53890e-002
356	 9.7187500000e+001	 1.80427e-002
357	 9.7250000000e+001	 1.43648e-002
358	 9.7312500000e+001	 9.98114e-003
359	 9.7375000000e+001	 1.11494e-002
360	 9.7437500000e+001	 9.38229e-003
361	 9.7500000000e+001	 1.43570e-002
362	 9.7562500000e+001	 1.34635e-002
363	 9.7625000000e+001	 7.20744e-003
364	 9.7687500000e+001	 6.42263e-003
365	 9.7750000000e+001	 1.24066e-002
366	 9.7812500000e+001	 1.76342e-002
367	 9.7875000000e+001	 1.61588e-002
368	 9.7937500000e+001	 1.21734e-002
369	 9.8000000000e+001	 1.25732e-002
370	 9.8062500000e+001	 8.05031e-003
371	 9.8125000000e+001	 7.35661e-003
372	 9.8187500000e+001	 1.07898e-002
373	 9.8250000000e+001	 4.42600e-003
374	 9.8312500000e+001	 9.72985e-003
375	 9.8375000000e+001	 1.61092e-002
376	 9.8437500000e+001	 1.08425e-002
377	 9.8500000000e+001	 1.14947e-002
378	 9.8562500000e+001	 1.54012e-002
379	 9.8625000000e+001	 1.24364e-002
380	 9.8687500000e+001	 1.02788e-002
381	 9.8750000000e+001	 1.01068e-002
382	 9.8812500000e+001	 1.21782e-002
383	 9.8875000000e+001	 1.98490e-002
384	 9.8937500000e+001	 2.10568e-002
385	 9.9000000000e+001	 1.48153e-002
386	 9.9062500000e+001	 9.88965e-003
387	 9.9125000000e+001	 1.32215e-002
388	 9.9187500000e+001	 1.01139e-002
389	 9.9250000000e+001	 1.79385e-002
390	 9.9312500000e+001	 1.85740e-002
391	 9.9375000000e+001	 1.29986e-002
392	 9.9437500000e+001	 9.10059e-003
393	 9.9500000000e+001	 1.24679e-002
394	 9.9562500000e+001	 9.38279e-003
395	 9.9625000000e+001	 8.08035e-003
396	 9.9687500000e+001	 1.34286e-002
397	 9.9750000000e+001	 1.81503e-002
398	 9.9812500000e+001	 1.09647e-002
399	 9.9875000000e+001	 1.04562e-002
400	 9.9937500000e+001	 1.19904e-002
401	 1.0000000000e+002	 1.48950e-002
402	 1.0006250000e+002	 1.37622e-002
403	 1.0012500000e+002	 1.34319e-002
404	 1.0018750000e+002	 1.10080e-002
405	 1.0025000000e+002	 1.84541e-002
406	 1.0031250000e+002	 1.65771e-002
407	 1.0037500000e+002	 2.03412e-002
408	 1.0043750000e+002	 3.24815e-002
409	 1.0050000000e+002	 1.80803e-002
410	 1.0056250000e+002	 1.45409e-002
411	 1.0062500000e+002	 2.38300e-002
412	 1.0068750000e+002	 3.41689e-002
413	 1.0075000000e+002	 2.58721e-002
414	 1.0081250000e+002	 3.04018e-002
415	 1.0087500000e+002	 2.06686e-002
416	 1.0093750000e+002	 1.89934e-002
417	 1.0100000000e+002	 1.87067e-002
418	 1.0106250000e+002	 2.50426e-002
419	 1.0112500000e+002	 2.74143e-002
420	 1.0118750000e+002	 2.04465e-002
421	 1.0125000000e+002	 2.13353e-002
422	 1.0131250000e+002	 1.97115e-002
423	 1.0137500000e+002	 9.19591e-003
424	 1.0143750000e+002	 1.87172e-002
425	 1.0150000000e+002	 1.28274e-002
426	 1.0156250000e+002	 8.57320e-003
427	 1.0162500000e+002	 2.48108e-002
428	 1.0168750000e+002	 2.89664e-002
429	 1.0175000000e+002	 3.19257e-002
430	 1.0181250000e+002	 3.45870e-002
431	 1.0187500000e+002	 2.70793e-002
432	 1.0193750000e+002	 2.08976e-002
433	 1.0200000000e+002	 3.17623e-002
434	 1.0206250000e+002	 2.84224e-002
435	 1.0212500000e+002	 1.15400e-002
436	 1.0218750000e+002	 1.47276e-002
437	 1.0225000000e+002	 2.13445e-002
438	 1.0231250000e+002	 1.82050e-002
439	 1.0237500000e+002	 2.34693e-002
440	 1.0243750000e+002	 2.28944e-002
441	 1.0250000000e+002	 4.24604e-002
442	 1.0256250000e+002	 5.67338e-002
443	 1.0262500000e+002	 4.07247e-002
444	 1.0268750000e+002	 5.11977e-002
445	 1.0275000000e+002	 6.11618e-002
446	 1.0281250000e+002	 5.35196e-002
447	 1.0287500000e+002	 5.30377e-002
448	 1.0293750000e+002	 3.71259e-002
449	 1.0300000000e+002	 3.91485e-002
450	 1.0306250000e+002	 2.97312e-002
451	 1.0312500000e+002	 4.31714e-002
452	 1.0318750000e+002	 8.54294e-002
453	 1.0325000000e+002	 3.90176e-002
454	 1.0331250000e+002	 2.90090e-002
455	 1.0337500000e+002	 3.73052e-002
456	 1.0343750000e+002	 4.44923e-002
457	 1.0350000000e+002	 5.70025e-002
458	 1.0356250000e+002	 7.56577e-002
459	 1.0362500000e+002	 4.36861e-002
460	 1.0368750000e+002	 4.54769e-002
461	 1.0375000000e+002	 4.86148e-002
462	 1.0381250000e+002	 3.64994e-002
463	 1.0387500000e+002	 5.59729e-002
464	 1.0393750000e+002	 4.96117e-002
465	 1.0400000000e+002	 4.68302e-002
466	 1.0406250000e+002	 4.52401e-002
467	 1.0412500000e+002	 3.71168e-002
468	 1.0418750000e+002	 7.21681e-002
469	 1.0425000000e+002	 9.38879e-002
470	 1.0431250000e+002	 7.26111e-002
471	 1.0437500000e+002	 5.30894e-002
472	 1.0443750000e+002	 3.41583e-002
473	 1.0450000000e+002	 3.84452e-002
474	 1.0456250000e+002	 4.28789e-002
475	 1.0462500000e+002	 4.24624e-002
476	 1.0468750000e+002	 7.70442e-002
477	 1.0475000000e+002	 8.19437e-002
478	 1.0481250000e+002	 5.95062e-002
479	 1.0487500000e+002	 9.03409e-002
480	 1.0493750000e+002	 1.01978e-001
481	 1.0500000000e+002	 9.76612e-002
482	 1.0506250000e+002	 6.48612e-002
483	 1.0512500000e+002	 7.37614e-002
484	 1.0518750000e+002	 6.46400e-002
485	 1.0525000000e+002	 7.53897e-002
486	 1.0531250000e+002	 7.65131e-002
487	 1.0537500000e+002	 7.95126e-002
488	 1.0543750000e+002	 1.43861e-001
489	 1.0550000000e+002	 1.24331e-001
490	 1.0556250000e+002	 6.06074e-002
491	 1.0562500000e+002	 6.98776e-002
492	 1.0568750000e+002	 1.01937e-001
493	 1.0575000000e+002	 1.06152e-001
494	 1.0581250000e+002	 5.57054e-002
495	 1.0587500000e+002	 3.53111e-002
496	 1.0593750000e+002	 6.37556e-002
497	 1.0600000000e+002	 1.50322e-001
498	 1.0606250000e+002	 1.93968e-001
499	 1.0612500000e+002	 1.45676e-001
500	 1.0618750000e+002	 8.29767e-002
501	 1.0625000000e+002	 6.28752e-002
502	 1.0631250000e+002	 7.72372e-002
503	 1.0637500000e+002	 1.70994e-001
504	 1.0643750000e+002	 1.87578e-001
505	 1.0650000000e+002	 1.77357e-001
506	 1.0656250000e+002	 2.71325e-001
507	 1.0662500000e+002	 2.44678e-001
508	 1.0668750000e+002	 2.23788e-001
509	 1.0675000000e+002	 1.98847e-001
510	 1.0681250000e+002	 1.57737e-001
511	 1.0687500000e+002	 1.81238e-001
512	 1.0693750000e+002	 3.34018e-001
513	 1.0700000000e+002	 3.70170e-001
514	 1.0706250000e+002	 3.62625e-001
515	 1.0712500000e+002	 4.12335e-001
516	 1.0718750000e+002	 2.94026e-001
517	 1.0725000000e+002	 2.77167e-001
518	 1.0731250000e+002	 3.02757e-001
519	 1.0737500000e+002	 2.24317e-001
520	 1.0743750000e+002	 2.00503e-001
521	 1.0750000000e+002	 2.87230e-001
522	 1.0756250000e+002	 5.10227e-001
523	 1.0762500000e+002	 5.61226e-001
524	 1.0768750000e+002	 4.64355e-001
525	 1.0775000000e+002	 3.28316e-001
526	 1.0781250000e+002	 2.15342e-001
527	 1.0787500000e+002	 3.49490e-001
528	 1.0793750000e+002	 4.99958e-001
529	 1.0800000000e+002	 3.55755e-001
530	 1.0806250000e+002	 2.15282e-001
531	 1.0812500000e+002	 3.34134e-001
532	 1.0818750000e+002	 2.62465e-001
533	 1.0825000000e+002	 2.62000e-001
534	 1.0831250000e+002	 4.04428e-001
535	 1.0837500000e+002	 2.78223e-001
536	 1.0843750000e+002	 1.54250e-001
537	 1.0850000000e+002	 1.11410e-001
538	 1.0856250000e+002	 1.14065e-001
539	 1.0862500000e+002	 1.29682e-001
540	 1.0868750000e+002	 1.05908e-001
541	 1.0875000000e+002	 1.30678e-001
542	 1.0881250000e+002	 1.91661e-001
543	 1.0887500000e+002	 2.73907e-001
544	 1.0893750000e+002	 1.60937e-001
545	 1.0900000000e+002	 2.25348e-001
546	 1.0906250000e+002	 1.87604e-001
547	 1.0912500000e+002	 1.64501e-001
548	 1.0918750000e+002	 2.21274e-001
549	 1.0925000000e+002	 2.08515e-001
550	 1.0931250000e+002	 2.39652e-001
551	 1.0937500000e+002	 2.24503e-001
552	 1.0943750000e+002	 1.32694e-001
553	 1.0950000000e+002	 1.54424e-001
554	 1.0956250000e+002	 1.97959e-001
555	 1.0962500000e+002	 2.84745e-001
556	 1.0968750000e+002	 2.14105e-001
557	 1.0975000000e+002	 1.21321e-001
558	 1.0981250000e+002	 1.82975e-001
559	 1.0987500000e+002	 2.22924e-001
560	 1.0993750000e+002	 2.75037e-001
561	 1.1000000000e+002	 1.81641e-001
562	 1.1006250000e+002	 1.31575e-001
563	 1.1012500000e+002	 1.82014e-001
564	 1.1018750000e+002	 2.93783e-001
565	 1.1025000000e+002	 1.60416e-001
566	 1.1031250000e+002	 2.01622e-001
567	 1.1037500000e+002	 2.43787e-001
568	 1.1043750000e+002	 1.98021e-001
569	 1.1050000000e+002	 2.04820e-001
570	 1.1056250000e+002	 1.43434e-001
571	 1.1062500000e+002	 1.51948e-001
572	 1.1068750000e+002	 1.35961e-001
573	 1.1075000000e+002	 2.07685e-001
574	 1.1081250000e+002	 1.81431e-001
575	 1.1087500000e+002	 1.84918e-001
576	 1.1093750000e+002	 1.97499e-001
577	 1.1100000000e+002	 9.89301e-002
578	 1.1106250000e+002	 1.23100e-001
579	 1.1112500000e+002	 1.38412e-001
580	 1.1118750000e+002	 6.88839e-002
581	 1.1125000000e+002	 5.73920e-002
582	 1.1131250000e+002	 1.08800e-001
583	 1.1137500000e+002	 1.12395e-001
584	 1.1143750000e+002	 6.76524e-002
585	 1.1150000000e+002	 7.99363e-002
586	 1.1156250000e+002	 7.85441e-002
587	 1.1162500000e+002	 7.26839e-002
588	 1.1168750000e+002	 6.78110e-002
589	 1.1175000000e+002	 7.24105e-002
590	 1.1181250000e+002	 7.86783e-002
591	 1.1187500000e+002	 9.56477e-002
592	 1.1193750000e+002	 1.08684e-001
593	 1.1200000000e+002	 1.27377e-001
594	 1.1206250000e+002	 1.23969e-001
595	 1.1212500000e+002	 7.46337e-002
596	 1.1218750000e+002	 8.48183e-002
597	 1.1225000000e+002	 7.61691e-002
598	 1.1231250000e+002	 6.65244e-002
599	 1.1237500000e+002	 9.05490e-002
600	 1.1243750000e+002	 1.57006e-001
601	 1.1250000000e+002	 9.71831e-002
602	 1.1256250000e+002	 7.85376e-002
603	 1.1262500000e+002	 1.53913e-001
604	 1.1268750000e+002	 1.23666e-001
605	 1.1275000000e+002	 1.12196e-001
606	 1.1281250000e+002	 9.22152e-002
607	 1.1287500000e+002	 7.08395e-002
608	 1.1293750000e+002	 6.17158e-002
609	 1.1300000000e+002	 4.07303e-002
610	 1.1306250000e+002	 5.04986e-002
611	 1.1312500000e+002	 6.45041e-002
612	 1.1318750000e+002	 8.34572e-002
613	 1.1325000000e+002	 1.50837e-001
614	 1.1331250000e+002	 1.38419e-001
615	 1.1337500000e+002	 1.15561e-001
616	 1.1343750000e+002	 1.43564e-001
617	 1.1350000000e+002	 1.09797e-001
618	 1.1356250000e+002	 7.08498e-002
619	 1.1362500000e+002	 5.28386e-002
620	 1.1368750000e+002	 5.37536e-002
621	 1.1375000000e+002	 7.77403e-002
622	 1.1381250000e+002	 5.70305e-002
623	 1.1387500000e+002	 4.46449e-002
624	 1.1393750000e+002	 4.57550e-002
625	 1.1400000000e+002	 6.76257e-002
626	 1.1406250000e+002	 5.34005e-002
627	 1.1412500000e+002	 5.55683e-002
628	 1.1418750000e+002	 9.80638e-002
629	 1.1425000000e+002	 9.40434e-002
630	 1.1431250000e+002	 6.26882e-002
631	 1.1437500000e+002	 8.29747e-002
632	 1.1443750000e+002	 7.54849e-002
633	 1.1450000000e+002	 3.45539e-002
634	 1.1456250000e+002	 4.03315e-002
635	 1.1462500000e+002	 3.17604e-002
636	 1.1468750000e+002	 3.69081e-002
637	 1.1475000000e+002	 4.53463e-002
638	 1.1481250000e+002	 2.33591e-002
639	 1.1487500000e+002	 3.14809e-002
640	 1.1493750000e+002	 3.14302e-002
641	 1.1500000000e+002	 6.55467e-002
642	 1.1506250000e+002	 6.38836e-002
643	 1.1512500000e+002	 3.40030e-002
644	 1.1518750000e+002	 2.42837e-002
645	 1.1525000000e+002	 2.70817e-002
646	 1.1531250000e+002	 2.49440e-002
647	 1.1537500000e+002	 4.37350e-002
648	 1.1543750000e+002	 3.23441e-002
649	 1.1550000000e+002	 4.11850e-002
650	 1.1556250000e+002	 5.68644e-002
651	 1.1562500000e+002	 4.74076e-002
652	 1.1568750000e+002	 4.95583e-002
653	 1.1575000000e+002	 3.70937e-002
654	 1.1581250000e+002	 2.47382e-002
655	 1.1587500000e+002	 3.31628e-002
656	 1.1593750000e+002	 2.55984e-002
657	 1.1600000000e+002	 2.43683e-002
658	 1.1606250000e+002	 3.65988e-002
659	 1.1612500000e+002	 4.56431e-002
660	 1.1618750000e+002	 3.70876e-002
661	 1.1625000000e+002	 4.25867e-002
662	 1.1631250000e+002	 3.36363e-002
663	 1.1637500000e+002	 2.75666e-002
664	 1.1643750000e+002	 4.58358e-002
665	 1.1650000000e+002	 4.88894e-002
666	 1.1656250000e+002	 3.17836e-002
667	 1.1662500000e+002	 3.00046e-002
668	 1.1668750000e+002	 2.75780e-002
669	 1.1675000000e+002	 1.82747e-002
670	 1.1681250000e+002	 2.15820e-002
671	 1.1687500000e+002	 2.09569e-002
672	 1.1693750000e+002	 2.11480e-002
673	 1.1700000000e+002	 3.42888e-002
674	 1.1706250000e+002	 5.53349e-002
675	 1.1712500000e+002	 3.75720e-002
676	 1.1718750000e+002	 1.98190e-002
677	 1.1725000000e+002	 1.98004e-002
678	 1.1731250000e+002	 2.85723e-002
679	 1.1737500000e+002	 2.95901e-002
680	 1.1743750000e+002	 2.30890e-002
681	 1.1750000000e+002	 2.37380e-002
682	 1.1756250000e+002	 2.43652e-002
683	 1.1762500000e+002	 1.78058e-002
684	 1.1768750000e+002	 2.49994e-002
685	 1.1775000000e+002	 2.08665e-002
686	 1.1781250000e+002	 1.76439e-002
687	 1.1787500000e+002	 2.35085e-002
688	 1.1793750000e+002	 2.28526e-002
689	 1.1800000000e+002	 1.24331e-002
690	 1.1806250000e+002	 1.09348e-002
691	 1.1812500000e+002	 1.68934e-002
692	 1.1818750000e+002	 4.07013e-002
693	 1.1825000000e+002	 2.84087e-002
694	 1.1831250000e+002	 2.51329e-002
695	 1.1837500000e+002	 1.61796e-002
696	 1.1843750000e+002	 1.76878e-002
697	 1.1850000000e+002	 2.42281e-002
698	 1.1856250000e+002	 1.86935e-002
699	 1.1862500000e+002	 2.00797e-002
700	 1.1868750000e+002	 3.07407e-002
701	 1.1875000000e+002	 3.32854e-002
702	 1.1881250000e+002	 2.09650e-002
703	 1.1887500000e+002	 1.72441e-002
704	 1.1893750000e+002	 2.21858e-002
705	 1.1900000000e+002	 1.85302e-002
706	 1.1906250000e+002	 2.26528e-002
707	 1.1912500000e+002	 1.64176e-002
708	 1.1918750000e+002	 1.82576e-002
709	 1.1925000000e+002	 2.17428e-002
710	 1.1931250000e+002	 2.24791e-002
711	 1.1937500000e+002	 2.80373e-002
712	 1.1943750000e+002	 2.29177e-002
713	 1.1950000000e+002	 1.35579e-002
714	 1.1956250000e+002	 1.38282e-002
715	 1.1962500000e+002	 1.65665e-002
716	 1.1968750000e+002	 2.28031e-002
717	 1.1975000000e+002	 3.44065e-002
718	 1.1981250000e+002	 2.37665e-002
719	 1.1987500000e+002	 3.27050e-002
720	 1.1993750000e+002	 2.41831e-002
721	 1.2000000000e+002	 2.88577e-002
722	 1.2006250000e+002	 3.60290e-002
723	 1.2012500000e+002	 1.99837e-002
724	 1.2018750000e+002	 7.60674e-003
725	 1.2025000000e+002	 1.91136e-002
726	 1.2031250000e+002	 2.82234e-002
727	 1.2037500000e+002	 1.18913e-002
728	 1.2043750000e+002	 1.34853e-002
729	 1.2050000000e+002	 2.32212e-002
730	 1.2056250000e+002	 3.16561e-002
731	 1.2062500000e+002	 2.38855e-002
732	 1.2068750000e+002	 1.27511e-002
733	 1.2075000000e+002	 1.55249e-002
734	 1.2081250000e+002	 2.73945e-002
735	 1.2087500000e+002	 1.50526e-002
736	 1.2093750000e+002	 1.83992e-002
737	 1.2100000000e+002	 2.87092e-002
738	 1.2106250000e+002	 2.04378e-002
739	 1.2112500000e+002	 8.28031e-003
740	 1.2118750000e+002	 1.15270e-002
741	 1.2125000000e+002	 1.98813e-002
742	 1.2131250000e+002	 1.75169e-002
743	 1.2137500000e+002	 8.19591e-003
744	 1.2143750000e+002	 3.64463e-003
745	 1.2150000000e+002	 6.57913e-003
746	 1.2156250000e+002	 9.71133e-003
747	 1.2162500000e+002	 1.27083e-002
748	 1.2168750000e+002	 1.62844e-002
749	 1.2175000000e+002	 1.31662e-002
750	 1.2181250000e+002	 2.27435e-002
751	 1.2187500000e+002	 1.71222e-002
752	 1.2193750000e+002	 9.26382e-003
753	 1.2200000000e+002	 1.23351e-002
754	 1.2206250000e+002	 1.67830e-002
755	 1.2212500000e+002	 2.40281e-002
756	 1.2218750000e+002	 1.54840e-002
757	 1.2225000000e+002	 1.31149e-002
758	 1.2231250000e+002	 1.25969e-002
759	 1.2237500000e+002	 7.70371e-003
760	 1.2243750000e+002	 1.11426e-002
761	 1.2250000000e+002	 2.19318e-002
762	 1.2256250000e+002	 1.92611e-002
763	 1.2262500000e+002	 1.51958e-002
764	 1.2268750000e+002	 1.59925e-002
765	 1.2275000000e+002	 1.34352e-002
766	 1.2281250000e+002	 8.68452e-003
767	 1.2287500000e+002	 7.21530e-003
768	 1.2293750000e+002	 7.47279e-003
769	 1.2300000000e+002	 9.89420e-003
770	 1.2306250000e+002	 1.06520e-002
771	 1.2312500000e+002	 1.76340e-002
772	 1.2318750000e+002	 2.16556e-002
773	 1.2325000000e+002	 1.48389e-002
774	 1.2331250000e+002	 8.50066e-003
775	 1.2337500000e+002	 9.88615e-003
776	 1.2343750000e+002	 4.90341e-003
777	 1.2350000000e+002	 5.11245e-003
778	 1.2356250000e+002	 1.00221e-002
779	 1.2362500000e+002	 1.04986e-002
780	 1.2368750000e+002	 1.32868e-002
781	 1.2375000000e+002	 1.11228e-002
782	 1.2381250000e+002	 1.70854e-002
783	 1.2387500000e+002	 1.57922e-002
784	 1.2393750000e+002	 1.61556e-002
785	 1.2400000000e+002	 1.26250e-002
786	 1.2406250000e+002	 9.61544e-003
787	 1.2412500000e+002	 7.76110e-003
788	 1.2418750000e+002	 1.46997e-002
789	 1.2425000000e+002	 1.42946e-002
790	 1.2431250000e+002	 2.29653e-002
791	 1.2437500000e+002	 1.77541e-002
792	 1.2443750000e+002	 1.08177e-002
793	 1.2450000000e+002	 1.70543e-002
794	 1.2456250000e+002	 2.37362e-002
795	 1.2462500000e+002	 1.98074e-002
796	 1.2468750000e+002	 1.27960e-002
797	 1.2475000000e+002	 1.46466e-002
798	 1.2481250000e+002	 1.32107e-002
799	 1.2487500000e+002	 7.73044e-003
800	 1.2493750000e+002	 7.59159e-003
801	 1.2500000000e+002	 9.62152e-003
802	 1.2506250000e+002	 9.08758e-003
803	 1.2512500000e+002	 1.00136e-002
804	 1.2518750000e+002	 1.78708e-002
805	 1.2525000000e+002	 1.62763e-002
806	 1.2531250000e+002	 1.34685e-002
807	 1.2537500000e+002	 1.29190e-002
808	 1.2543750000e+002	 9.72854e-003
809	 1.2550000000e+002	 1.01646e-002
810	 1.2556250000e+002	 1.85211e-002
811	 1.2562500000e+002	 1.98982e-002
812	 1.2568750000e+002	 1.52883e-002
813	 1.2575000000e+002	 1.12344e-002
814	 1.2581250000e+002	 8.99349e-003
815	 1.2587500000e+002	 8.87378e-003
816	 1.2593750000e+002	 1.75646e-002
817	 1.2600000000e+002	 2.45298e-002
818	 1.2606250000e+002	 2.14053e-002
819	 1.2612500000e+002	 1.11942e-002
820	 1.2618750000e+002	 1.00941e-002
821	 1.2625000000e+002	 1.38335e-002
822	 1.2631250000e+002	 1.10703e-002
823	 1.2637500000e+002	 6.86605e-003
824	 1.2643750000e+002	 9.62118e-003
825	 1.2650000000e+002	 1.14093e-002
826	 1.2656250000e+002	 1.75268e-002
827	 1.2662500000e+002	 8.85318e-003
828	 1.2668750000e+002	 6.11119e-003
829	 1.2675000000e+002	 5.31583e-003
830	 1.2681250000e+002	 1.07700e-002
831	 1.2687500000e+002	 1.43155e-002
832	 1.2693750000e+002	 1.58512e-002
833	 1.2700000000e+002	 1.25206e-002
834	 1.2706250000e+002	 1.72728e-002
835	 1.2712500000e+002	 1.65592e-002
836	 1.2718750000e+002	 1.59938e-002
837	 1.2725000000e+002	 2.37679e-002
838	 1.2731250000e+002	 1.03978e-002
839	 1.2737500000e+002	 1.35499e-002
840	 1.2743750000e+002	 1.26971e-002
841	 1.2750000000e+002	 9.12786e-003
842	 1.2756250000e+002	 9.03049e-003
843	 1.2762500000e+002	 8.83438e-003
844	 1.2768750000e+002	 8.41618e-003
845	 1.2775000000e+002	 1.20255e-002
846	 1.2781250000e+002	 9.58388e-003
847	 1.2787500000e+002	 4.46250e-003
848	 1.2793750000e+002	 5.62243e-003
849	 1.2800000000e+002	 1.43889e-002
850	 1.2806250000e+002	 1.08060e-002
851	 1.2812500000e+002	 1.01744e-002
852	 1.2818750000e+002	 1.22420e-002
853	 1.2825000000e+002	 1.47364e-002
854	 1.2831250000e+002	 1.27334e-002
855	 1.2837500000e+002	 6.17618e-003
856	 1.2843750000e+002	 6.18236e-003
857	 1.2850000000e+002	 9.55956e-003
858	 1.2856250000e+002	 1.17819e-002
859	 1.2862500000e+002	 5.55414e-003
860	 1.2868750000e+002	 2.78624e-003
861	 1.2875000000e+002	 6.12114e-003
862	 1.2881250000e+002	 1.35703e-002
863	 1.2887500000e+002	 1.77478e-002
864	 1.2893750000e+002	 1.47234e-002
865	 1.2900000000e+002	 7.91213e-003
866	 1.2906250000e+002	 3.95984e-003
867	 1.2912500000e+002	 7.76748e-003
868	 1.2918750000e+002	 1.75444e-002
869	 1.2925000000e+002	 1.92010e-002
870	 1.2931250000e+002	 1.03864e-002
871	 1.2937500000e+002	 9.34270e-003
872	 1.2943750000e+002	 8.67542e-003
873	 1.2950000000e+002	 9.81708e-003
874	 1.2956250000e+002	 1.74071e-002
875	 1.2962500000e+002	 1.45360e-002
876	 1.2968750000e+002	 7.67376e-003
877	 1.2975000000e+002	 7.55944e-003
878	 1.2981250000e+002	 8.02854e-003
879	 1.2987500000e+002	 6.63339e-003
880	 1.2993750000e+002	 9.11733e-003
881	 1.3000000000e+002	 8.29219e-003
882	 1.3006250000e+002	 1.13066e-002
883	 1.3012500000e+002	 1.04217e-002
884	 1.3018750000e+002	 1.20286e-002
885	 1.3025000000e+002	 8.25444e-003
886	 1.3031250000e+002	 8.51608e-003
887	 1.3037500000e+002	 1.36534e-002
888	 1.3043750000e+002	 1.10032e-002
889	 1.3050000000e+002	 6.76099e-003
890	 1.3056250000e+002	 5.02958e-003
891	 1.3062500000e+002	 6.80699e-003
892	 1.3068750000e+002	 6.09916e-003
893	 1.3075000000e+002	 7.69641e-003
894	 1.3081250000e+002	 7.62145e-003
895	 1.3087500000e+002	 1.00775e-002
896	 1.3093750000e+002	 1.22073e-002
897	 1.3100000000e+002	 1.20298e-002
898	 1.3106250000e+002	 8.18267e-003
899	 1.3112500000e+002	 8.10121e-003
900	 1.3118750000e+002	 5.31825e-003
901	 1.3125000000e+002	 5.61065e-003
902	 1.3131250000e+002	 6.11496e-003
903	 1.3137500000e+002	 6.28335e-003
904	 1.3143750000e+002	 7.48175e-003
905	 1.3150000000e+002	 1.12188e-002
906	 1.3156250000e+002	 1.18368e-002
907	 1.3162500000e+002	 1.18815e-002
908	 1.3168750000e+002	 8.87956e-003
909	 1.3175000000e+002	 5.77457e-003
910	 1.3181250000e+002	 7.29322e-003
911	 1.3187500000e+002	 6.51813e-003
912	 1.3193750000e+002	 5.53721e-003
913	 1.3200000000e+002	 1.33460e-002
914	 1.3206250000e+002	 1.52750e-002
915	 1.3212500000e+002	 1.50179e-002
916	 1.3218750000e+002	 1.67127e-002
917	 1.3225000000e+002	 1.00645e-002
918	 1.3231250000e+002	 1.02008e-002
919	 1.3237500000e+002	 1.16134e-002
920	 1.3243750000e+002	 1.65868e-002
921	 1.3250000000e+002	 1.87114e-002
922	 1.3256250000e+002	 5.40332e-003
923	 1.3262500000e+002	 2.77221e-003
924	 1.3268750000e+002	 6.03551e-003
925	 1.3275000000e+002	 9.07643e-003
926	 1.3281250000e+002	 7.84807e-003
927	 1.3287500000e+002	 1.04165e-002
928	 1.3293750000e+002	 1.40838e-002
929	 1.3300000000e+002	 8.59867e-003
930	 1.3306250000e+002	 6.92930e-003
931	 1.3312500000e+002	 1.77352e-002
932	 1.3318750000e+002	 1.40669e-002
933	 1.3325000000e+002	 1.37612e-002
934	 1.3331250000e+002	 8.27765e-003
935	 1.3337500000e+002	 7.25375e-003
936	 1.3343750000e+002	 9.33739e-003
937	 1.3350000000e+002	 7.64987e-003
938	 1.3356250000e+002	 1.07342e-002
939	 1.3362500000e+002	 9.55783e-003
940	 1.3368750000e+002	 1.12395e-002
941	 1.3375000000e+002	 1.64336e-002
942	 1.3381250000e+002	 1.88400e-002
943	 1.3387500000e+002	 1.30778e-002
944	 1.3393750000e+002	 7.53012e-003
945	 1.3400000000e+002	 5.60003e-003
946	 1.3406250000e+002	 7.87773e-003
947	 1.3412500000e+002	 1.50281e-002
948	 1.3418750000e+002	 9.94912e-003
949	 1.3425000000e+002	 1.45685e-002
950	 1.3431250000e+002	 1.23036e-002
951	 1.3437500000e+002	 1.83628e-002
952	 1.3443750000e+002	 2.25667e-002
953	 1.3450000000e+002	 8.38807e-003
954	 1.3456250000e+002	 4.89926e-003
955	 1.3462500000e+002	 9.79235e-003
956	 1.3468750000e+002	 1.75243e-002
957	 1.3475000000e+002	 1.20801e-002
958	 1.3481250000e+002	 6.57271e-003
959	 1.3487500000e+002	 8.49794e-003
960	 1.3493750000e+002	 9.30431e-003
961	 1.3500000000e+002	 9.23182e-003
962	 1.3506250000e+002	 8.03689e-003
963	 1.3512500000e+002	 1.06088e-002
964	 1.3518750000e+002	 9.98805e-003
965	 1.3525000000e+002	 8.56698e-003
966	 1.3531250000e+002	 8.87230e-003
967	 1.3537500000e+002	 1.24125e-002
968	 1.3543750000e+002	 2.30266e-002
969	 1.3550000000e+002	 1.23679e-002
970	 1.3556250000e+002	 8.34255e-003
971	 1.3562500000e+002	 7.99847e-003
972	 1.3568750000e+002	 1.25734e-002
973	 1.3575000000e+002	 1.12812e-002
974	 1.3581250000e+002	 1.00168e-002
975	 1.3587500000e+002	 9.94617e-003
976	 1.3593750000e+002	 6.66506e-003
977	 1.3600000000e+002	 6.77215e-003
978	 1.3606250000e+002	 7.37603e-003
979	 1.3612500000e+002	 1.30728e-002
980	 1.3618750000e+002	 1.75773e-002
981	 1.3625000000e+002	 1.64072e-002
982	 1.3631250000e+002	 8.21475e-003
983	 1.3637500000e+002	 6.26401e-003
984	 1.3643750000e+002	 1.14866e-002
985	 1.3650000000e+002	 1.04094e-002
986	 1.3656250000e+002	 8.15126e-003
987	 1.3662500000e+002	 6.45214e-003
988	 1.3668750000e+002	 7.61593e-003
989	 1.3675000000e+002	 8.77377e-003
990	 1.3681250000e+002	 8.18034e-003
991	 1.3687500000e+002	 1.38151e-002
992	 1.3693750000e+002	 1.63663e-002
993	 1.3700000000e+002	 1.99577e-002
994	 1.3706250000e+002	 1.49682e-002
995	 1.3712500000e+002	 1.91788e-002
996	 1.3718750000e+002	 1.24191e-002
997	 1.3725000000e+002	 8.90025e-003
998	 1.3731250000e+002	 1.59329e-002
999	 1.3737500000e+002	 1.94540e-002
1000	 1.3743750000e+002	 1.07953e-002
1001	 1.3750000000e+002	 8.95111e-003
1002	 1.3756250000e+002	 1.13096e-002
1003	 1.3762500000e+002	 1.86695e-002
1004	 1.3768750000e+002	 2.31098e-002
1005	 1.3775000000e+002	 1.60109e-002
1006	 1.3781250000e+002	 1.13183e-002
1007	 1.3787500000e+002	 1.48320e-002
1008	 1.3793750000e+002	 1.00542e-002
1009	 1.3800000000e+002	 1.01616e-002
1010	 1.3806250000e+002	 1.81273e-002
1011	 1.3812500000e+002	 2.44684e-002
1012	 1.3818750000e+002	 2.50134e-002
1013	 1.3825000000e+002	 1.75079e-002
1014	 1.3831250000e+002	 7.92955e-003
1015	 1.3837500000e+002	 5.85946e-003
1016	 1.3843750000e+002	 1.04251e-002
1017	 1.3850000000e+002	 2.09583e-002
1018	 1.3856250000e+002	 1.73736e-002
1019	 1.3862500000e+002	 2.18027e-002
1020	 1.3868750000e+002	 2.63265e-002
1021	 1.3875000000e+002	 1.70428e-002
1022	 1.3881250000e+002	 1.55220e-002
1023	 1.3887500000e+002	 1.86686e-002
1024	 1.3893750000e+002	 1.71271e-002
1025	 1.3900000000e+002	 2.60467e-002
1026	 1.3906250000e+002	 3.23538e-002
1027	 1.3912500000e+002	 1.20767e-002
1028	 1.3918750000e+002	 1.51687e-002
1029	 1.3925000000e+002	 2.60677e-002
1030	 1.3931250000e+002	 3.10275e-002
1031	 1.3937500000e+002	 2.32340e-002
1032	 1.3943750000e+002	 1.78459e-002
1033	 1.3950000000e+002	 1.28014e-002
1034	 1.3956250000e+002	 1.07593e-002
1035	 1.3962500000e+002	 8.26568e-003
1036	 1.3968750000e+002	 1.53908e-002
1037	 1.3975000000e+002	 1.66250e-002
1038	 1.3981250000e+002	 9.43365e-003
1039	 1.3987500000e+002	 8.88497e-003
1040	 1.3993750000e+002	 1.15086e-002
1041	 1.4000000000e+002	 1.73625e-002
1042	 1.4006250000e+002	 2.04592e-002
1043	 1.4012500000e+002	 1.53753e-002
1044	 1.4018750000e+002	 1.08837e-002
1045	 1.4025000000e+002	 1.18578e-002
1046	 1.4031250000e+002	 1.89570e-002
1047	 1.4037500000e+002	 2.23152e-002
1048	 1.4043750000e+002	 1.08705e-002
1049	 1.4050000000e+002	 9.22383e-003
1050	 1.4056250000e+002	 1.16690e-002
1051	 1.4062500000e+002	 2.23663e-002
1052	 1.4068750000e+002	 2.13998e-002
1053	 1.4075000000e+002	 2.47311e-002
1054	 1.4081250000e+002	 2.24218e-002
1055	 1.4087500000e+002	 1.66621e-002
1056	 1.4093750000e+002	 1.47455e-002
1057	 1.4100000000e+002	 1.64211e-002
1058	 1.4106250000e+002	 2.23260e-002
1059	 1.4112500000e+002	 1.23047e-002
1060	 1.4118750000e+002	 9.81616e-003
1061	 1.4125000000e+002	 1.18167e-002
1062	 1.4131250000e+002	 1.14305e-002
1063	 1.4137500000e+002	 1.53198e-002
1064	 1.4143750000e+002	 1.46115e-002
1065	 1.4150000000e+002	 1.13322e-002
1066	 1.4156250000e+002	 1.31937e-002
1067	 1.4162500000e+002	 1.59610e-002
1068	 1.4168750000e+002	 2.01856e-002
1069	 1.4175000000e+002	 1.32880e-002
1070	 1.4181250000e+002	 1.89937e-002
1071	 1.4187500000e+002	 3.55135e-002
1072	 1.4193750000e+002	 2.83640e-002
1073	 1.4200000000e+002	 2.06046e-002
1074	 1.4206250000e+002	 1.72781e-002
1075	 1.4212500000e+002	 2.14212e-002
1076	 1.4218750000e+002	 1.61500e-002
1077	 1.4225000000e+002	 1.52293e-002
1078	 1.4231250000e+002	 1.38244e-002
1079	 1.4237500000e+002	 1.43296e-002
1080	 1.4243750000e+002	 8.16744e-003
1081	 1.4250000000e+002	 1.93513e-002
1082	 1.4256250000e+002	 3.04564e-002
1083	 1.4262500000e+002	 1.23790e-002
1084	 1.4268750000e+002	 1.11311e-002
1085	 1.4275000000e+002	 8.81976e-003
1086	 1.4281250000e+002	 8.30959e-003
1087	 1.4287500000e+002	 1.19354e-002
1088	 1.4293750000e+002	 1.58872e-002
1089	 1.4300000000e+002	 2.13031e-002
1090	 1.4306250000e+002	 2.35991e-002
1091	 1.4312500000e+002	 1.85789e-002
1092	 1.4318750000e+002	 1.48996e-002
1093	 1.4325000000e+002	 1.63067e-002
1094	 1.4331250000e+002	 2.74213e-002
1095	 1.4337500000e+002	 1.47845e-002
1096	 1.4343750000e+002	 1.05837e-002
1097	 1.4350000000e+002	 2.10237e-002
1098	 1.4356250000e+002	 2.16345e-002
1099	 1.4362500000e+002	 2.60854e-002
1100	 1.4368750000e+002	 2.38271e-002
1101	 1.4375000000e+002	 2.39091e-002
1102	 1.4381250000e+002	 1.93721e-002
1103	 1.4387500000e+002	 2.87934e-002
1104	 1.4393750000e+002	 3.57992e-002
1105	 1.4400000000e+002	 3.60623e-002
1106	 1.4406250000e+002	 2.51465e-002
1107	 1.4412500000e+002	 1.79995e-002
1108	 1.4418750000e+002	 1.96007e-002
1109	 1.4425000000e+002	 1.02796e-002
1110	 1.4431250000e+002	 1.38540e-002
1111	 1.4437500000e+002	 1.49537e-002
1112	 1.4443750000e+002	 9.00476e-003
1113	 1.4450000000e+002	 6.24740e-003
1114	 1.4456250000e+002	 9.49107e-003
1115	 1.4462500000e+002	 1.86766e-002
1116	 1.4468750000e+002	 1.34392e-002
1117	 1.4475000000e+002	 1.89551e-002
1118	 1.4481250000e+002	 2.13103e-002
1119	 1.4487500000e+002	 1.33497e-002
1120	 1.4493750000e+002	 1.73147e-002
1121	 1.4500000000e+002	 1.75657e-002
1122	 1.4506250000e+002	 1.45485e-002
1123	 1.4512500000e+002	 2.27278e-002
1124	 1.4518750000e+002	 2.09866e-002
1125	 1.4525000000e+002	 1.68551e-002
1126	 1.4531250000e+002	 1.30866e-002
1127	 1.4537500000e+002	 1.15648e-002
1128	 1.4543750000e+002	 1.77413e-002
1129	 1.4550000000e+002	 2.67957e-002
1130	 1.4556250000e+002	 4.54678e-002
1131	 1.4562500000e+002	 4.26405e-002
1132	 1.4568750000e+002	 2.90775e-002
1133	 1.4575000000e+002	 2.73951e-002
1134	 1.4581250000e+002	 5.79893e-002
1135	 1.4587500000e+002	 3.95786e-002
1136	 1.4593750000e+002	 2.87359e-002
1137	 1.4600000000e+002	 3.38231e-002
1138	 1.4606250000e+002	 2.14317e-002
1139	 1.4612500000e+002	 2.26198e-002
1140	 1.4618750000e+002	 1.72243e-002
1141	 1.4625000000e+002	 2.08209e-002
1142	 1.4631250000e+002	 3.90705e-002
1143	 1.4637500000e+002	 3.40310e-002
1144	 1.4643750000e+002	 2.97341e-002
1145	 1.4650000000e+002	 5.32329e-002
1146	 1.4656250000e+002	 6.30644e-002
1147	 1.4662500000e+002	 4.34268e-002
1148	 1.4668750000e+002	 2.10273e-002
1149	 1.4675000000e+002	 2.69173e-002
1150	 1.4681250000e+002	 2.75815e-002
1151	 1.4687500000e+002	 3.70343e-002
1152	 1.4693750000e+002	 3.06121e-002
1153	 1.4700000000e+002	 2.30860e-002
1154	 1.4706250000e+002	 3.66838e-002
1155	 1.4712500000e+002	 2.64178e-002
1156	 1.4718750000e+002	 1.75972e-002
1157	 1.4725000000e+002	 2.60126e-002
1158	 1.4731250000e+002	 3.12101e-002
1159	 1.4737500000e+002	 3.58160e-002
1160	 1.4743750000e+002	 4.18136e-002
1161	 1.4750000000e+002	 5.31461e-002
1162	 1.4756250000e+002	 4.15433e-002
1163	 1.4762500000e+002	 7.06655e-002
1164	 1.4768750000e+002	 5.60661e-002
1165	 1.4775000000e+002	 3.01878e-002
1166	 1.4781250000e+002	 2.37071e-002
1167	 1.4787500000e+002	 2.74785e-002
1168	 1.4793750000e+002	 4.57652e-002
1169	 1.4800000000e+002	 2.93221e-002
1170	 1.4806250000e+002	 3.81624e-002
1171	 1.4812500000e+002	 2.92747e-002
1172	 1.4818750000e+002	 2.91034e-002
1173	 1.4825000000e+002	 3.83360e-002
1174	 1.4831250000e+002	 2.36234e-002
1175	 1.4837500000e+002	 2.29475e-002
1176	 1.4843750000e+002	 2.82667e-002
1177	 1.4850000000e+002	 2.75335e-002
1178	 1.4856250000e+002	 3.49954e-002
1179	 1.4862500000e+002	 3.23606e-002
1180	 1.4868750000e+002	 1.69893e-002
1181	 1.4875000000e+002	 2.38456e-002
1182	 1.4881250000e+002	 2.94548e-002
1183	 1.4887500000e+002	 4.39319e-002
1184	 1.4893750000e+002	 6.40681e-002
1185	 1.4900000000e+002	 6.74715e-002
1186	 1.4906250000e+002	 5.26596e-002
1187	 1.4912500000e+002	 5.14135e-002
1188	 1.4918750000e+002	 4.57704e-002
1189	 1.4925000000e+002	 4.14769e-002
1190	 1.4931250000e+002	 6.36762e-002
1191	 1.4937500000e+002	 5.17431e-002
1192	 1.4943750000e+002	 4.76709e-002
1193	 1.4950000000e+002	 4.22641e-002
1194	 1.4956250000e+002	 4.70376e-002
1195	 1.4962500000e+002	 3.83624e-002
1196	 1.4968750000e+002	 2.58422e-002
1197	 1.4975000000e+002	 2.58429e-002
1198	 1.4981250000e+002	 5.82508e-002
1199	 1.4987500000e+002	 4.97382e-002
1200	 1.4993750000e+002	 2.58602e-002
1201	 1.5000000000e+002	 3.47948e-002
1202	 1.5006250000e+002	 3.95043e-002
1203	 1.5012500000e+002	 2.97217e-002
1204	 1.5018750000e+002	 1.98490e-002
1205	 1.5025000000e+002	 3.76191e-002
1206	 1.5031250000e+002	 3.33501e-002
1207	 1.5037500000e+002	 2.62892e-002
1208	 1.5043750000e+002	 3.48213e-002
1209	 1.5050000000e+002	 7.31867e-002
1210	 1.5056250000e+002	 6.35050e-002
1211	 1.5062500000e+002	 5.90275e-002
1212	 1.5068750000e+002	 7.54903e-002
1213	 1.5075000000e+002	 6.50159e-002
1214	 1.5081250000e+002	 6.13300e-002
1215	 1.5087500000e+002	 9.39172e-002
1216	 1.5093750000e+002	 6.98417e-002
1217	 1.5100000000e+002	 5.92926e-002
1218	 1.5106250000e+002	 7.43174e-002
1219	 1.5112500000e+002	 6.49881e-002
1220	 1.5118750000e+002	 6.39021e-002
1221	 1.5125000000e+002	 3.77219e-002
1222	 1.5131250000e+002	 5.15236e-002
1223	 1.5137500000e+002	 5.69330e-002
1224	 1.5143750000e+002	 4.72311e-002
1225	 1.5150000000e+002	 6.54615e-002
1226	 1.5156250000e+002	 7.23367e-002
1227	 1.5162500000e+002	 5.76573e-002
1228	 1.5168750000e+002	 8.09432e-002
1229	 1.5175000000e+002	 6.59186e-002
1230	 1.5181250000e+002	 8.05106e-002
1231	 1.5187500000e+002	 5.15603e-002
1232	 1.5193750000e+002	 3.67802e-002
1233	 1.5200000000e+002	 3.60167e-002
1234	 1.5206250000e+002	 4.52846e-002
1235	 1.5212500000e+002	 5.62222e-002
1236	 1.5218750000e+002	 8.04753e-002
1237	 1.5225000000e+002	 8.75036e-002
1238	 1.5231250000e+002	 5.80549e-002
1239	 1.5237500000e+002	 5.36614e-002
1240	 1.5243750000e+002	 4.60072e-002
1241	 1.5250000000e+002	 5.16718e-002
1242	 1.5256250000e+002	 3.95094e-002
1243	 1.5262500000e+002	 5.47500e-002
1244	 1.5268750000e+002	 5.38754e-002
1245	 1.5275000000e+002	 6.94567e-002
1246	 1.5281250000e+002	 8.72883e-002
1247	 1.5287500000e+002	 1.29562e-001
1248	 1.5293750000e+002	 1.32143e-001
1249	 1.5300000000e+002	 1.48062e-001
1250	 1.5306250000e+002	 9.63308e-002
1251	 1.5312500000e+002	 6.15463e-002
1252	 1.5318750000e+002	 8.68818e-002
1253	 1.5325000000e+002	 8.22359e-002
1254	 1.5331250000e+002	 1.05914e-001
1255	 1.5337500000e+002	 9.76753e-002
1256	 1.5343750000e+002	 9.75453e-002
1257	 1.5350000000e+002	 4.77846e-002
1258	 1.5356250000e+002	 4.89712e-002
1259	 1.5362500000e+002	 7.35886e-002
1260	 1.5368750000e+002	 3.94218e-002
1261	 1.5375000000e+002	 7.69994e-002
1262	 1.5381250000e+002	 1.08828e-001
1263	 1.5387500000e+002	 1.39855e-001
1264	 1.5393750000e+002	 1.43958e-001
1265	 1.5400000000e+002	 1.26618e-001
1266	 1.5406250000e+002	 7.80493e-002
1267	 1.5412500000e+002	 6.59489e-002
1268	 1.5418750000e+002	 4.73106e-002
1269	 1.5425000000e+002	 6.94571e-002
1270	 1.5431250000e+002	 1.11918e-001
1271	 1.5437500000e+002	 1.46429e-001
1272	 1.5443750000e+002	 2.14965e-001
1273	 1.5450000000e+002	 1.20444e-001
1274	 1.5456250000e+002	 1.28194e-001
1275	 1.5462500000e+002	 1.90819e-001
1276	 1.5468750000e+002	 1.07761e-001
1277	 1.5475000000e+002	 5.23227e-002
1278	 1.5481250000e+002	 8.38326e-002
1279	 1.5487500000e+002	 9.52256e-002
1280	 1.5493750000e+002	 1.04230e-001
1281	 1.5500000000e+002	 1.41800e-001
1282	 1.5506250000e+002	 1.82115e-001
1283	 1.5512500000e+002	 2.12067e-001
1284	 1.5518750000e+002	 2.55920e-001
1285	 1.5525000000e+002	 1.63073e-001
1286	 1.5531250000e+002	 1.73635e-001
1287	 1.5537500000e+002	 3.64482e-001
1288	 1.5543750000e+002	 3.42652e-001
1289	 1.5550000000e+002	 2.45779e-001
1290	 1.5556250000e+002	 4.16494e-001
1291	 1.5562500000e+002	 3.13303e-001
1292	 1.5568750000e+002	 3.04792e-001
1293	 1.5575000000e+002	 3.02744e-001
1294	 1.5581250000e+002	 3.76393e-001
1295	 1.5587500000e+002	 2.61066e-001
1296	 1.5593750000e+002	 9.44544e-002
1297	 1.5600000000e+002	 1.33515e-001
1298	 1.5606250000e+002	 2.42568e-001
1299	 1.5612500000e+002	 3.26191e-001
1300	 1.5618750000e+002	 3.45546e-001
1301	 1.5625000000e+002	 2.33904e-001
1302	 1.5631250000e+002	 1.50734e-001
1303	 1.5637500000e+002	 2.06507e-001
1304	 1.5643750000e+002	 1.66298e-001
1305	 1.5650000000e+002	 5.96321e-002
1306	 1.5656250000e+002	 5.19687e-002
1307	 1.5662500000e+002	 1.27015e-001
1308	 1.5668750000e+002	 2.03185e-001
1309	 1.5675000000e+002	 2.55283e-001
1310	 1.5681250000e+002	 2.22566e-001
1311	 1.5687500000e+002	 1.59360e-001
1312	 1.5693750000e+002	 2.32817e-001
1313	 1.5700000000e+002	 3.43391e-001
1314	 1.5706250000e+002	 1.75595e-001
1315	 1.5712500000e+002	 1.35406e-001
1316	 1.5718750000e+002	 1.63475e-001
1317	 1.5725000000e+002	 1.54129e-001
1318	 1.5731250000e+002	 1.31478e-001
1319	 1.5737500000e+002	 1.20377e-001
1320	 1.5743750000e+002	 1.76793e-001
1321	 1.5750000000e+002	 3.61381e-001
1322	 1.5756250000e+002	 3.45319e-001
1323	 1.5762500000e+002	 2.74001e-001
1324	 1.5768750000e+002	 2.41870e-001
1325	 1.5775000000e+002	 2.13927e-001
1326	 1.5781250000e+002	 2.50047e-001
1327	 1.5787500000e+002	 3.62998e-001
1328	 1.5793750000e+002	 4.02061e-001
1329	 1.5800000000e+002	 3.16904e-001
1330	 1.5806250000e+002	 2.21151e-001
1331	 1.5812500000e+002	 2.33737e-001
1332	 1.5818750000e+002	 3.77085e-001
1333	 1.5825000000e+002	 3.10357e-001
1334	 1.5831250000e+002	 4.20955e-001
1335	 1.5837500000e+002	 3.58303e-001
1336	 1.5843750000e+002	 2.30321e-001
1337	 1.5850000000e+002	 3.78351e-001
1338	 1.5856250000e+002	 3.44180e-001
1339	 1.5862500000e+002	 1.61264e-001
1340	 1.5868750000e+002	 2.94339e-001
1341	 1.5875000000e+002	 4.62393e-001
1342	 1.5881250000e+002	 5.79959e-001
1343	 1.5887500000e+002	 4.94032e-001
1344	 1.5893750000e+002	 3.94413e-001
1345	 1.5900000000e+002	 7.59937e-001
1346	 1.5906250000e+002	 1.08223e+000
1347	 1.5912500000e+002	 6.16324e-001
1348	 1.5918750000e+002	 4.24962e-001
1349	 1.5925000000e+002	 3.91330e-001
1350	 1.5931250000e+002	 5.85240e-001
1351	 1.5937500000e+002	 4.67275e-001
1352	 1.5943750000e+002	 6.03688e-001
1353	 1.5950000000e+002	 4.44094e-001
1354	 1.5956250000e+002	 3.17117e-001
1355	 1.5962500000e+002	 5.42241e-001
1356	 1.5968750000e+002	 7.60360e-001
1357	 1.5975000000e+002	 5.28291e-001
1358	 1.5981250000e+002	 2.72710e-001
1359	 1.5987500000e+002	 1.93741e-001
1360	 1.5993750000e+002	 2.62172e-001
1361	 1.6000000000e+002	 3.68925e-001
1362	 1.6006250000e+002	 6.62386e-001
1363	 1.6012500000e+002	 1.24794e+000
1364	 1.6018750000e+002	 1.16633e+000
1365	 1.6025000000e+002	 7.17220e-001
1366	 1.6031250000e+002	 9.64512e-001
1367	 1.6037500000e+002	 1.12945e+000
1368	 1.6043750000e+002	 5.20861e-001
1369	 1.6050000000e+002	 5.49229e-001
1370	 1.6056250000e+002	 6.33005e-001
1371	 1.6062500000e+002	 6.71854e-001
1372	 1.6068750000e+002	 5.08113e-001
1373	 1.6075000000e+002	 4.86135e-001
1374	 1.6081250000e+002	 8.30113e-001
1375	 1.6087500000e+002	 8.72085e-001
1376	 1.6093750000e+002	 9.71371e-001
1377	 1.6100000000e+002	 1.04329e+000
1378	 1.6106250000e+002	 4.10201e-001
1379	 1.6112500000e+002	 6.25891e-001
1380	 1.6118750000e+002	 7.69088e-001
1381	 1.6125000000e+002	 4.05081e-001
1382	 1.6131250000e+002	 2.65634e-001
1383	 1.6137500000e+002	 6.27716e-001
1384	 1.6143750000e+002	 1.31161e+000
1385	 1.6150000000e+002	 1.09183e+000
1386	 1.6156250000e+002	 4.88735e-001
1387	 1.6162500000e+002	 5.77482e-001
1388	 1.6168750000e+002	 6.19510e-001
1389	 1.6175000000e+002	 3.44957e-001
1390	 1.6181250000e+002	 3.15710e-001
1391	 1.6187500000e+002	 7.56987e-001
1392	 1.6193750000e+002	 1.09736e+000
1393	 1.6200000000e+002	 7.70098e-001
1394	 1.6206250000e+002	 3.54147e-001
1395	 1.6212500000e+002	 6.20910e-001
1396	 1.6218750000e+002	 5.83293e-001
1397	 1.6225000000e+002	 9.99220e-001
1398	 1.6231250000e+002	 1.11390e+000
1399	 1.6237500000e+002	 7.32695e-001
1400	 1.6243750000e+002	 5.43256e-001
1401	 1.6250000000e+002	 4.58810e-001
1402	 1.6256250000e+002	 7.96515e-001
1403	 1.6262500000e+002	 8.44477e-001
1404	 1.6268750000e+002	 4.51800e-001
1405	 1.6275000000e+002	 4.21441e-001
1406	 1.6281250000e+002	 3.51569e-001
1407	 1.6287500000e+002	 1.72476e-001
1408	 1.6293750000e+002	 3.57864e-001
1409	 1.6300000000e+002	 6.10984e-001
1410	 1.6306250000e+002	 6.21425e-001
1411	 1.6312500000e+002	 5.48749e-001
1412	 1.6318750000e+002	 8.13582e-001
1413	 1.6325000000e+002	 4.53048e-001
1414	 1.6331250000e+002	 4.93752e-001
1415	 1.6337500000e+002	 5.63058e-001
1416	 1.6343750000e+002	 4.93982e-001
1417	 1.6350000000e+002	 3.28594e-001
1418	 1.6356250000e+002	 1.97801e-001
1419	 1.6362500000e+002	 2.50212e-001
1420	 1.6368750000e+002	 3.59056e-001
1421	 1.6375000000e+002	 5.31863e-001
1422	 1.6381250000e+002	 7.58260e-001
1423	 1.6387500000e+002	 4.53806e-001
1424	 1.6393750000e+002	 2.98536e-001
1425	 1.6400000000e+002	 5.79914e-001
1426	 1.6406250000e+002	 6.65450e-001
1427	 1.6412500000e+002	 4.83109e-001
1428	 1.6418750000e+002	 2.69188e-001
1429	 1.6425000000e+002	 3.75439e-001
1430	 1.6431250000e+002	 4.58343e-001
1431	 1.6437500000e+002	 2.60900e-001
1432	 1.6443750000e+002	 2.21423e-001
1433	 1.6450000000e+002	 2.69931e-001
1434	 1.6456250000e+002	 2.61434e-001
1435	 1.6462500000e+002	 4.47455e-001
1436	 1.6468750000e+002	 4.19995e-001
1437	 1.6475000000e+002	 2.51542e-001
1438	 1.6481250000e+002	 2.14993e-001
1439	 1.6487500000e+002	 2.30251e-001
1440	 1.6493750000e+002	 2.27690e-001
1441	 1.6500000000e+002	 1.99276e-001
1442	 1.6506250000e+002	 2.94289e-001
1443	 1.6512500000e+002	 4.23865e-001
1444	 1.6518750000e+002	 3.07134e-001
1445	 1.6525000000e+002	 2.13846e-001
1446	 1.6531250000e+002	 2.62820e-001
1447	 1.6537500000e+002	 3.88526e-001
1448	 1.6543750000e+002	 3.54555e-001
1449	 1.6550000000e+002	 2.33259e-001
1450	 1.6556250000e+002	 1.30933e-001
1451	 1.6562500000e+002	 1.50616e-001
1452	 1.6568750000e+002	 1.06051e-001
1453	 1.6575000000e+002	 7.49056e-002
1454	 1.6581250000e+002	 1.13833e-001
1455	 1.6587500000e+002	 1.79194e-001
1456	 1.6593750000e+002	 1.33471e-001
1457	 1.6600000000e+002	 1.52714e-001
1458	 1.6606250000e+002	 1.42375e-001
1459	 1.6612500000e+002	 1.96753e-001
1460	 1.6618750000e+002	 1.44855e-001
1461	 1.6625000000e+002	 2.61944e-001
1462	 1.6631250000e+002	 3.59263e-001
1463	 1.6637500000e+002	 1.91996e-001
1464	 1.6643750000e+002	 1.87575e-001
1465	 1.6650000000e+002	 1.32750e-001
1466	 1.6656250000e+002	 1.15290e-001
1467	 1.6662500000e+002	 1.64372e-001
1468	 1.6668750000e+002	 1.38001e-001
1469	 1.6675000000e+002	 1.59925e-001
1470	 1.6681250000e+002	 1.63718e-001
1471	 1.6687500000e+002	 1.65935e-001
1472	 1.6693750000e+002	 1.29273e-001
1473	 1.6700000000e+002	 1.78166e-001
1474	 1.6706250000e+002	 1.26694e-001
1475	 1.6712500000e+002	 1.31239e-001
1476	 1.6718750000e+002	 1.64110e-001
1477	 1.6725000000e+002	 1.34191e-001
1478	 1.6731250000e+002	 1.19248e-001
1479	 1.6737500000e+002	 1.12976e-001
1480	 1.6743750000e+002	 8.57644e-002
1481	 1.6750000000e+002	 1.27030e-001
1482	 1.6756250000e+002	 1.07013e-001
1483	 1.6762500000e+002	 1.13462e-001
1484	 1.6768750000e+002	 9.73677e-002
1485	 1.6775000000e+002	 1.03182e-001
1486	 1.6781250000e+002	 9.26133e-002
1487	 1.6787500000e+002	 9.72779e-002
1488	 1.6793750000e+002	 1.14317e-001
1489	 1.6800000000e+002	 1.21816e-001
1490	 1.6806250000e+002	 1.68618e-001
1491	 1.6812500000e+002	 1.39901e-001
1492	 1.6818750000e+002	 1.74718e-001
1493	 1.6825000000e+002	 1.62514e-001
1494	 1.6831250000e+002	 1.22953e-001
1495	 1.6837500000e+002	 1.24230e-001
1496	 1.6843750000e+002	 1.06172e-001
1497	 1.6850000000e+002	 1.56111e-001
1498	 1.6856250000e+002	 9.53311e-002
1499	 1.6862500000e+002	 1.23491e-001
1500	 1.6868750000e+002	 9.13292e-002
1501	 1.6875000000e+002	 8.42913e-002
1502	 1.6881250000e+002	 1.47755e-001
1503	 1.6887500000e+002	 1.43671e-001
1504	 1.6893750000e+002	 1.75938e-001
1505	 1.6900000000e+002	 1.07939e-001
1506	 1.6906250000e+002	 7.70727e-002
1507	 1.6912500000e+002	 8.92255e-002
1508	 1.6918750000e+002	 9.18633e-002
1509	 1.6925000000e+002	 1.75325e-001
1510	 1.6931250000e+002	 2.21480e-001
1511	 1.6937500000e+002	 1.26528e-001
1512	 1.6943750000e+002	 6.76133e-002
1513	 1.6950000000e+002	 1.12779e-001
1514	 1.6956250000e+002	 1.40754e-001
1515	 1.6962500000e+002	 1.45972e-001
1516	 1.6968750000e+002	 1.05316e-001
1517	 1.6975000000e+002	 1.22510e-001
1518	 1.6981250000e+002	 1.72542e-001
1519	 1.6987500000e+002	 2.31959e-001
1520	 1.6993750000e+002	 1.21485e-001
1521	 1.7000000000e+002	 6.99429e-002
1522	 1.7006250000e+002	 8.49097e-002
1523	 1.7012500000e+002	 1.24866e-001
1524	 1.7018750000e+002	 7.00316e-002
1525	 1.7025000000e+002	 6.52800e-002
1526	 1.7031250000e+002	 4.61065e-002
1527	 1.7037500000e+002	 3.03592e-002
1528	 1.7043750000e+002	 8.26634e-002
1529	 1.7050000000e+002	 1.31278e-001
1530	 1.7056250000e+002	 8.65522e-002
1531	 1.7062500000e+002	 9.46937e-002
1532	 1.7068750000e+002	 7.13160e-002
1533	 1.7075000000e+002	 5.22804e-002
1534	 1.7081250000e+002	 3.81456e-002
1535	 1.7087500000e+002	 3.18715e-002
1536	 1.7093750000e+002	 4.49078e-002
1537	 1.7100000000e+002	 3.74993e-002
1538	 1.7106250000e+002	 4.79458e-002
1539	 1.7112500000e+002	 7.99714e-002
1540	 1.7118750000e+002	 1.07246e-001
1541	 1.7125000000e+002	 1.09278e-001
1542	 1.7131250000e+002	 6.40614e-002
1543	 1.7137500000e+002	 6.63368e-002
1544	 1.7143750000e+002	 6.80031e-002
1545	 1.7150000000e+002	 2.74452e-002
1546	 1.7156250000e+002	 3.35187e-002
1547	 1.7162500000e+002	 6.21540e-002
1548	 1.7168750000e+002	 7.37703e-002
1549	 1.7175000000e+002	 7.75972e-002
1550	 1.7181250000e+002	 7.93096e-002
1551	 1.7187500000e+002	 6.95092e-002
1552	 1.7193750000e+002	 8.08037e-002
1553	 1.7200000000e+002	 9.81862e-002
1554	 1.7206250000e+002	 7.06079e-002
1555	 1.7212500000e+002	 5.66181e-002
1556	 1.7218750000e+002	 8.54429e-002
1557	 1.7225000000e+002	 1.10129e-001
1558	 1.7231250000e+002	 7.51256e-002
1559	 1.7237500000e+002	 9.56673e-002
1560	 1.7243750000e+002	 5.12917e-002
1561	 1.7250000000e+002	 2.38206e-002
1562	 1.7256250000e+002	 4.12684e-002
1563	 1.7262500000e+002	 5.74272e-002
1564	 1.7268750000e+002	 5.53208e-002
1565	 1.7275000000e+002	 9.29937e-002
1566	 1.7281250000e+002	 1.01126e-001
1567	 1.7287500000e+002	 8.27962e-002
1568	 1.7293750000e+002	 6.77112e-002
1569	 1.7300000000e+002	 5.13423e-002
1570	 1.7306250000e+002	 4.77137e-002
1571	 1.7312500000e+002	 5.09761e-002
1572	 1.7318750000e+002	 4.55185e-002
1573	 1.7325000000e+002	 8.64685e-002
1574	 1.7331250000e+002	 8.20594e-002
1575	 1.7337500000e+002	 6.82494e-002
1576	 1.7343750000e+002	 4.84572e-002
1577	 1.7350000000e+002	 3.19020e-002
1578	 1.7356250000e+002	 2.76364e-002
1579	 1.7362500000e+002	 3.50987e-002
1580	 1.7368750000e+002	 4.79940e-002
1581	 1.7375000000e+002	 4.74307e-002
1582	 1.7381250000e+002	 5.48774e-002
1583	 1.7387500000e+002	 3.82660e-002
1584	 1.7393750000e+002	 2.44887e-002
1585	 1.7400000000e+002	 2.48656e-002
1586	 1.7406250000e+002	 2.31771e-002
1587	 1.7412500000e+002	 2.82177e-002
1588	 1.7418750000e+002	 5.26215e-002
1589	 1.7425000000e+002	 6.29212e-002
1590	 1.7431250000e+002	 4.93392e-002
1591	 1.7437500000e+002	 5.55196e-002
1592	 1.7443750000e+002	 4.48835e-002
1593	 1.7450000000e+002	 5.59188e-002
1594	 1.7456250000e+002	 6.27501e-002
1595	 1.7462500000e+002	 3.21547e-002
1596	 1.7468750000e+002	 4.11349e-002
1597	 1.7475000000e+002	 7.77557e-002
1598	 1.7481250000e+002	 9.81139e-002
1599	 1.7487500000e+002	 9.83767e-002
1600	 1.7493750000e+002	 3.76298e-002
1601	 1.7500000000e+002	 3.38698e-002
1602	 1.7506250000e+002	 5.16508e-002
1603	 1.7512500000e+002	 6.12225e-002
1604	 1.7518750000e+002	 4.95324e-002
1605	 1.7525000000e+002	 7.04827e-002
1606	 1.7531250000e+002	 6.15156e-002
1607	 1.7537500000e+002	 2.18656e-002
1608	 1.7543750000e+002	 1.92840e-002
1609	 1.7550000000e+002	 3.45946e-002
1610	 1.7556250000e+002	 7.37387e-002
1611	 1.7562500000e+002	 5.44047e-002
1612	 1.7568750000e+002	 3.89848e-002
1613	 1.7575000000e+002	 6.68559e-002
1614	 1.7581250000e+002	 4.33163e-002
1615	 1.7587500000e+002	 5.04511e-002
1616	 1.7593750000e+002	 3.60619e-002
1617	 1.7600000000e+002	 2.22824e-002
1618	 1.7606250000e+002	 3.81143e-002
1619	 1.7612500000e+002	 3.03191e-002
1620	 1.7618750000e+002	 2.14666e-002
1621	 1.7625000000e+002	 3.46466e-002
1622	 1.7631250000e+002	 4.31710e-002
1623	 1.7637500000e+002	 4.41818e-002
1624	 1.7643750000e+002	 6.76235e-002
1625	 1.7650000000e+002	 7.87615e-002
1626	 1.7656250000e+002	 5.44469e-002
1627	 1.7662500000e+002	 1.86516e-002
1628	 1.7668750000e+002	 2.12907e-002
1629	 1.7675000000e+002	 2.74473e-002
1630	 1.7681250000e+002	 3.82855e-002
1631	 1.7687500000e+002	 2.09234e-002
1632	 1.7693750000e+002	 2.22258e-002
1633	 1.7700000000e+002	 4.09897e-002
1634	 1.7706250000e+002	 3.49968e-002
1635	 1.7712500000e+002	 2.73962e-002
1636	 1.7718750000e+002	 2.97932e-002
1637	 1.7725000000e+002	 2.57227e-002
1638	 1.7731250000e+002	 1.46695e-002
1639	 1.7737500000e+002	 2.00687e-002
1640	 1.7743750000e+002	 2.62673e-002
1641	 1.7750000000e+002	 2.24158e-002
1642	 1.7756250000e+002	 1.80647e-002
1643	 1.7762500000e+002	 1.89388e-002
1644	 1.7768750000e+002	 2.34912e-002
1645	 1.7775000000e+002	 3.27681e-002
1646	 1.7781250000e+002	 2.82580e-002
1647	 1.7787500000e+002	 3.67271e-002
1648	 1.7793750000e+002	 2.50553e-002
1649	 1.7800000000e+002	 2.80079e-002
1650	 1.7806250000e+002	 3.26327e-002
1651	 1.7812500000e+002	 3.43346e-002
1652	 1.7818750000e+002	 3.75443e-002
1653	 1.7825000000e+002	 2.87702e-002
1654	 1.7831250000e+002	 2.62962e-002
1655	 1.7837500000e+002	 3.83887e-002
1656	 1.7843750000e+002	 3.75430e-002
1657	 1.7850000000e+002	 4.21684e-002
1658	 1.7856250000e+002	 2.31699e-002
1659	 1.7862500000e+002	 3.44187e-002
1660	 1.7868750000e+002	 2.74980e-002
1661	 1.7875000000e+002	 2.56619e-002
1662	 1.7881250000e+002	 3.50563e-002
1663	 1.7887500000e+002	 2.78508e-002
1664	 1.7893750000e+002	 2.58298e-002
1665	 1.7900000000e+002	 3.62634e-002
1666	 1.7906250000e+002	 3.30887e-002
1667	 1.7912500000e+002	 2.94326e-002
1668	 1.7918750000e+002	 2.30072e-002
1669	 1.7925000000e+002	 4.02033e-002
1670	 1.7931250000e+002	 3.89576e-002
1671	 1.7937500000e+002	 1.51807e-002
1672	 1.7943750000e+002	 1.37143e-002
1673	 1.7950000000e+002	 3.20232e-002
1674	 1.7956250000e+002	 4.51552e-002
1675	 1.7962500000e+002	 3.94145e-002
1676	 1.7968750000e+002	 2.21193e-002
1677	 1.7975000000e+002	 1.58220e-002
1678	 1.7981250000e+002	 1.93701e-002
1679	 1.7987500000e+002	 3.74804e-002
1680	 1.7993750000e+002	 2.43160e-002
1681	 1.8000000000e+002	 2.48581e-002
1682	 1.8006250000e+002	 3.31585e-002
1683	 1.8012500000e+002	 1.80058e-002
1684	 1.8018750000e+002	 1.73415e-002
1685	 1.8025000000e+002	 2.63750e-002
1686	 1.8031250000e+002	 2.79412e-002
1687	 1.8037500000e+002	 3.67691e-002
1688	 1.8043750000e+002	 7.47328e-002
1689	 1.8050000000e+002	 5.35522e-002
1690	 1.8056250000e+002	 4.11428e-002
1691	 1.8062500000e+002	 4.36687e-002
1692	 1.8068750000e+002	 5.30315e-002
1693	 1.8075000000e+002	 4.72371e-002
1694	 1.8081250000e+002	 3.01519e-002
1695	 1.8087500000e+002	 3.55806e-002
1696	 1.8093750000e+002	 3.53060e-002
1697	 1.8100000000e+002	 2.96941e-002
1698	 1.8106250000e+002	 4.21284e-002
1699	 1.8112500000e+002	 3.87898e-002
1700	 1.8118750000e+002	 1.62655e-002
1701	 1.8125000000e+002	 1.56927e-002
1702	 1.8131250000e+002	 2.87070e-002
1703	 1.8137500000e+002	 3.71296e-002
1704	 1.8143750000e+002	 4.45662e-002
1705	 1.8150000000e+002	 6.20811e-002
1706	 1.8156250000e+002	 5.07754e-002
1707	 1.8162500000e+002	 3.29994e-002
1708	 1.8168750000e+002	 2.92095e-002
1709	 1.8175000000e+002	 4.86284e-002
1710	 1.8181250000e+002	 3.58497e-002
1711	 1.8187500000e+002	 4.73556e-002
1712	 1.8193750000e+002	 6.74845e-002
1713	 1.8200000000e+002	 6.38368e-002
1714	 1.8206250000e+002	 4.31423e-002
1715	 1.8212500000e+002	 4.11229e-002
1716	 1.8218750000e+002	 2.15660e-002
1717	 1.8225000000e+002	 2.25077e-002
1718	 1.8231250000e+002	 2.90900e-002
1719	 1.8237500000e+002	 1.77580e-002
1720	 1.8243750000e+002	 2.27699e-002
1721	 1.8250000000e+002	 3.96767e-002
1722	 1.8256250000e+002	 3.89079e-002
1723	 1.8262500000e+002	 5.15708e-002
1724	 1.8268750000e+002	 3.96282e-002
1725	 1.8275000000e+002	 2.09457e-002
1726	 1.8281250000e+002	 2.48129e-002
1727	 1.8287500000e+002	 2.38105e-002
1728	 1.8293750000e+002	 3.51208e-002
1729	 1.8300000000e+002	 4.07935e-002
1730	 1.8306250000e+002	 3.58345e-002
1731	 1.8312500000e+002	 3.55953e-002
1732	 1.8318750000e+002	 3.58370e-002
1733	 1.8325000000e+002	 4.42923e-002
1734	 1.8331250000e+002	 3.64443e-002
1735	 1.8337500000e+002	 1.42646e-002
1736	 1.8343750000e+002	 2.67161e-002
1737	 1.8350000000e+002	 2.80518e-002
1738	 1.8356250000e+002	 3.58157e-002
1739	 1.8362500000e+002	 3.36461e-002
1740	 1.8368750000e+002	 3.46018e-002
1741	 1.8375000000e+002	 3.03833e-002
1742	 1.8381250000e+002	 2.99223e-002
1743	 1.8387500000e+002	 2.29007e-002
1744	 1.8393750000e+002	 1.92853e-002
1745	 1.8400000000e+002	 2.94674e-002
1746	 1.8406250000e+002	 2.42998e-002
1747	 1.8412500000e+002	 4.26204e-002
1748	 1.8418750000e+002	 4.28644e-002
1749	 1.8425000000e+002	 2.33080e-002
1750	 1.8431250000e+002	 2.83081e-002
1751	 1.8437500000e+002	 3.53324e-002
1752	 1.8443750000e+002	 3.06465e-002
1753	 1.8450000000e+002	 2.03844e-002
1754	 1.8456250000e+002	 2.17034e-002
1755	 1.8462500000e+002	 2.80117e-002
1756	 1.8468750000e+002	 2.03474e-002
1757	 1.8475000000e+002	 1.85190e-002
1758	 1.8481250000e+002	 2.79692e-002
1759	 1.8487500000e+002	 2.56714e-002
1760	 1.8493750000e+002	 1.37522e-002
1761	 1.8500000000e+002	 1.05213e-002
1762	 1.8506250000e+002	 1.20037e-002
1763	 1.8512500000e+002	 7.27394e-003
1764	 1.8518750000e+002	 1.61118e-002
1765	 1.8525000000e+002	 2.18886e-002
1766	 1.8531250000e+002	 2.14293e-002
1767	 1.8537500000e+002	 2.31022e-002
1768	 1.8543750000e+002	 2.78705e-002
1769	 1.8550000000e+002	 3.48412e-002
1770	 1.8556250000e+002	 3.33754e-002
1771	 1.8562500000e+002	 3.67073e-002
1772	 1.8568750000e+002	 2.85444e-002
1773	 1.8575000000e+002	 3.04455e-002
1774	 1.8581250000e+002	 2.81581e-002
1775	 1.8587500000e+002	 1.64772e-002
1776	 1.8593750000e+002	 1.85205e-002
1777	 1.8600000000e+002	 3.59717e-002
1778	 1.8606250000e+002	 2.29804e-002
1779	 1.8612500000e+002	 1.54634e-002
1780	 1.8618750000e+002	 1.63020e-002
1781	 1.8625000000e+002	 2.49682e-002
1782	 1.8631250000e+002	 3.08194e-002
1783	 1.8637500000e+002	 4.42535e-002
1784	 1.8643750000e+002	 3.39403e-002
1785	 1.8650000000e+002	 2.26216e-002
1786	 1.8656250000e+002	 2.46783e-002
1787	 1.8662500000e+002	 3.19658e-002
1788	 1.8668750000e+002	 4.69183e-002
1789	 1.8675000000e+002	 4.30143e-002
1790	 1.8681250000e+002	 2.25924e-002
1791	 1.8687500000e+002	 2.79075e-002
1792	 1.8693750000e+002	 2.60123e-002
1793	 1.8700000000e+002	 1.82627e-002
1794	 1.8706250000e+002	 2.26905e-002
1795	 1.8712500000e+002	 3.92614e-002
1796	 1.8718750000e+002	 3.70255e-002
1797	 1.8725000000e+002	 2.00796e-002
1798	 1.8731250000e+002	 2.97157e-002
1799	 1.8737500000e+002	 2.61731e-002
1800	 1.8743750000e+002	 1.66269e-002
1801	 1.8750000000e+002	 2.28555e-002
1802	 1.8756250000e+002	 2.92541e-002
1803	 1.8762500000e+002	 2.48745e-002
1804	 1.8768750000e+002	 1.61744e-002
1805	 1.8775000000e+002	 1.98438e-002
1806	 1.8781250000e+002	 3.46029e-002
1807	 1.8787500000e+002	 3.06730e-002
1808	 1.8793750000e+002	 2.35871e-002
1809	 1.8800000000e+002	 1.67628e-002
1810	 1.8806250000e+002	 2.83204e-002
1811	 1.8812500000e+002	 4.48048e-002
1812	 1.8818750000e+002	 1.35789e-002
1813	 1.8825000000e+002	 2.59250e-002
1814	 1.8831250000e+002	 2.92606e-002
1815	 1.8837500000e+002	 1.96110e-002
1816	 1.8843750000e+002	 2.11487e-002
1817	 1.8850000000e+002	 3.05082e-002
1818	 1.8856250000e+002	 3.15885e-002
1819	 1.8862500000e+002	 3.01229e-002
1820	 1.8868750000e+002	 3.56447e-002
1821	 1.8875000000e+002	 1.55093e-002
1822	 1.8881250000e+002	 1.96449e-002
1823	 1.8887500000e+002	 2.92637e-002
1824	 1.8893750000e+002	 3.42906e-002
1825	 1.8900000000e+002	 2.26554e-002
1826	 1.8906250000e+002	 2.36847e-002
1827	 1.8912500000e+002	 2.53707e-002
1828	 1.8918750000e+002	 1.81194e-002
1829	 1.8925000000e+002	 1.76571e-002
1830	 1.8931250000e+002	 1.59846e-002
1831	 1.8937500000e+002	 2.62407e-002
1832	 1.8943750000e+002	 2.39362e-002
1833	 1.8950000000e+002	 3.90482e-002
1834	 1.8956250000e+002	 4.68832e-002
1835	 1.8962500000e+002	 4.04296e-002
1836	 1.8968750000e+002	 2.82561e-002
1837	 1.8975000000e+002	 3.46689e-002
1838	 1.8981250000e+002	 4.36630e-002
1839	 1.8987500000e+002	 2.56329e-002
1840	 1.8993750000e+002	 1.77337e-002
1841	 1.9000000000e+002	 1.64259e-002
1842	 1.9006250000e+002	 2.34613e-002
1843	 1.9012500000e+002	 3.26745e-002
1844	 1.9018750000e+002	 1.88799e-002
1845	 1.9025000000e+002	 3.37597e-002
1846	 1.9031250000e+002	 4.78820e-002
1847	 1.9037500000e+002	 6.65009e-002
1848	 1.9043750000e+002	 5.28059e-002
1849	 1.9050000000e+002	 2.66686e-002
1850	 1.9056250000e+002	 4.14350e-002
1851	 1.9062500000e+002	 4.76783e-002
1852	 1.9068750000e+002	 4.54543e-002
1853	 1.9075000000e+002	 4.45782e-002
1854	 1.9081250000e+002	 3.37768e-002
1855	 1.9087500000e+002	 3.90393e-002
1856	 1.9093750000e+002	 3.42335e-002
1857	 1.9100000000e+002	 4.48930e-002
1858	 1.9106250000e+002	 2.29616e-002
1859	 1.9112500000e+002	 1.56317e-002
1860	 1.9118750000e+002	 2.34419e-002
1861	 1.9125000000e+002	 1.91738e-002
1862	 1.9131250000e+002	 2.52478e-002
1863	 1.9137500000e+002	 2.81762e-002
1864	 1.9143750000e+002	 2.61362e-002
1865	 1.9150000000e+002	 2.30896e-002
1866	 1.9156250000e+002	 2.44428e-002
1867	 1.9162500000e+002	 1.95199e-002
1868	 1.9168750000e+002	 2.53771e-002
1869	 1.9175000000e+002	 2.85840e-002
1870	 1.9181250000e+002	 4.59545e-002
1871	 1.9187500000e+002	 4.27035e-002
1872	 1.9193750000e+002	 2.70727e-002
1873	 1.9200000000e+002	 3.26167e-002
1874	 1.9206250000e+002	 2.87304e-002
1875	 1.9212500000e+002	 3.20162e-002
1876	 1.9218750000e+002	 5.74477e-002
1877	 1.9225000000e+002	 5.66307e-002
1878	 1.9231250000e+002	 4.04264e-002
1879	 1.9237500000e+002	 3.04566e-002
1880	 1.9243750000e+002	 3.40335e-002
1881	 1.9250000000e+002	 3.60971e-002
1882	 1.9256250000e+002	 3.28579e-002
1883	 1.9262500000e+002	 2.87442e-002
1884	 1.9268750000e+002	 2.67076e-002
1885	 1.9275000000e+002	 2.17235e-002
1886	 1.9281250000e+002	 2.82979e-002
1887	 1.9287500000e+002	 2.25984e-002
1888	 1.9293750000e+002	 2.34001e-002
1889	 1.9300000000e+002	 2.78555e-002
1890	 1.9306250000e+002	 2.17087e-002
1891	 1.9312500000e+002	 2.31992e-002
1892	 1.9318750000e+002	 2.54679e-002
1893	 1.9325000000e+002	 2.28648e-002
1894	 1.9331250000e+002	 3.52852e-002
1895	 1.9337500000e+002	 3.60574e-002
1896	 1.9343750000e+002	 2.57547e-002
1897	 1.9350000000e+002	 2.54614e-002
1898	 1.9356250000e+002	 2.03044e-002
1899	 1.9362500000e+002	 3.02324e-002
1900	 1.9368750000e+002	 2.97456e-002
1901	 1.9375000000e+002	 2.59001e-002
1902	 1.9381250000e+002	 1.65524e-002
1903	 1.9387500000e+002	 1.60264e-002
1904	 1.9393750000e+002	 1.89197e-002
1905	 1.9400000000e+002	 2.53842e-002
1906	 1.9406250000e+002	 3.33300e-002
1907	 1.9412500000e+002	 4.19328e-002
1908	 1.9418750000e+002	 3.40630e-002
1909	 1.9425000000e+002	 3.02713e-002
1910	 1.9431250000e+002	 2.52989e-002
1911	 1.9437500000e+002	 4.41561e-002
1912	 1.9443750000e+002	 6.47248e-002
1913	 1.9450000000e+002	 3.98347e-002
1914	 1.9456250000e+002	 4.09299e-002
1915	 1.9462500000e+002	 4.50896e-002
1916	 1.9468750000e+002	 5.75707e-002
1917	 1.9475000000e+002	 3.07460e-002
1918	 1.9481250000e+002	 3.42954e-002
1919	 1.9487500000e+002	 3.19079e-002
1920	 1.9493750000e+002	 3.15439e-002
1921	 1.9500000000e+002	 4.60573e-002
1922	 1.9506250000e+002	 4.99520e-002
1923	 1.9512500000e+002	 2.78982e-002
1924	 1.9518750000e+002	 1.91517e-002
1925	 1.9525000000e+002	 1.31335e-002
1926	 1.9531250000e+002	 2.29885e-002
1927	 1.9537500000e+002	 2.47848e-002
1928	 1.9543750000e+002	 2.40383e-002
1929	 1.9550000000e+002	 3.38443e-002
1930	 1.9556250000e+002	 2.28909e-002
1931	 1.9562500000e+002	 2.85099e-002
1932	 1.9568750000e+002	 4.19576e-002
1933	 1.9575000000e+002	 5.52433e-002
1934	 1.9581250000e+002	 4.34974e-002
1935	 1.9587500000e+002	 3.55595e-002
1936	 1.9593750000e+002	 2.67110e-002
1937	 1.9600000000e+002	 2.61725e-002
1938	 1.9606250000e+002	 3.06780e-002
1939	 1.9612500000e+002	 3.48868e-002
1940	 1.9618750000e+002	 2.81170e-002
1941	 1.9625000000e+002	 1.53097e-002
1942	 1.9631250000e+002	 1.52812e-002
1943	 1.9637500000e+002	 1.17926e-002
1944	 1.9643750000e+002	 1.73117e-002
1945	 1.9650000000e+002	 1.99656e-002
1946	 1.9656250000e+002	 2.57014e-002
1947	 1.9662500000e+002	 3.95617e-002
1948	 1.9668750000e+002	 4.43628e-002
1949	 1.9675000000e+002	 2.16522e-002
1950	 1.9681250000e+002	 1.16227e-002
1951	 1.9687500000e+002	 2.64012e-002
1952	 1.9693750000e+002	 5.91661e-002
1953	 1.9700000000e+002	 6.15029e-002
1954	 1.9706250000e+002	 5.12207e-002
1955	 1.9712500000e+002	 4.18421e-002
1956	 1.9718750000e+002	 7.08361e-002
1957	 1.9725000000e+002	 5.23050e-002
1958	 1.9731250000e+002	 3.79440e-002
1959	 1.9737500000e+002	 2.22776e-002
1960	 1.9743750000e+002	 2.92370e-002
1961	 1.9750000000e+002	 5.96350e-002
1962	 1.9756250000e+002	 5.25510e-002
1963	 1.9762500000e+002	 4.41298e-002
1964	 1.9768750000e+002	 3.33226e-002
1965	 1.9775000000e+002	 2.10174e-002
1966	 1.9781250000e+002	 1.81721e-002
1967	 1.9787500000e+002	 3.64865e-002
1968	 1.9793750000e+002	 8.14835e-002
1969	 1.9800000000e+002	 4.98738e-002
1970	 1.9806250000e+002	 2.77233e-002
1971	 1.9812500000e+002	 2.59237e-002
1972	 1.9818750000e+002	 3.12388e-002
1973	 1.9825000000e+002	 2.24330e-002
1974	 1.9831250000e+002	 2.30573e-002
1975	 1.9837500000e+002	 3.51170e-002
1976	 1.9843750000e+002	 3.98608e-002
1977	 1.9850000000e+002	 2.21389e-002
1978	 1.9856250000e+002	 1.57304e-002
1979	 1.9862500000e+002	 2.19379e-002
1980	 1.9868750000e+002	 2.58310e-002
1981	 1.9875000000e+002	 4.95832e-002
1982	 1.9881250000e+002	 4.57058e-002
1983	 1.9887500000e+002	 4.00432e-002
1984	 1.9893750000e+002	 4.11625e-002
1985	 1.9900000000e+002	 5.52911e-002
1986	 1.9906250000e+002	 5.44174e-002
1987	 1.9912500000e+002	 3.49991e-002
1988	 1.9918750000e+002	 3.77722e-002
1989	 1.9925000000e+002	 5.11826e-002
1990	 1.9931250000e+002	 1.76884e-002
1991	 1.9937500000e+002	 3.27062e-002
1992	 1.9943750000e+002	 4.05575e-002
1993	 1.9950000000e+002	 3.58027e-002
1994	 1.9956250000e+002	 2.35774e-002
1995	 1.9962500000e+002	 3.30271e-002
1996	 1.9968750000e+002	 2.96312e-002
1997	 1.9975000000e+002	 2.44587e-002
1998	 1.9981250000e+002	 2.43315e-002
1999	 1.9987500000e+002	 5.64900e-002
2000	 1.9993750000e+002	 5.62856e-002
2001	 2.0000000000e+002	 5.39865e-002
2002	 2.0006250000e+002	 4.40274e-002
2003	 2.0012500000e+002	 4.37130e-002
2004	 2.0018750000e+002	 5.96414e-002
2005	 2.0025000000e+002	 7.75900e-002
2006	 2.0031250000e+002	 6.41090e-002
2007	 2.0037500000e+002	 7.16022e-002
2008	 2.0043750000e+002	 6.62633e-002
2009	 2.0050000000e+002	 6.19163e-002
2010	 2.0056250000e+002	 7.11247e-002
2011	 2.0062500000e+002	 2.19571e-002
2012	 2.0068750000e+002	 2.91518e-002
2013	 2.0075000000e+002	 2.87643e-002
2014	 2.0081250000e+002	 2.88241e-002
2015	 2.0087500000e+002	 3.32706e-002
2016	 2.0093750000e+002	 4.81684e-002
2017	 2.0100000000e+002	 4.17208e-002
2018	 2.0106250000e+002	 4.79022e-002
2019	 2.0112500000e+002	 5.02631e-002
2020	 2.0118750000e+002	 4.88332e-002
2021	 2.0125000000e+002	 3.53533e-002
2022	 2.0131250000e+002	 2.77874e-002
2023	 2.0137500000e+002	 6.23282e-002
2024	 2.0143750000e+002	 4.09987e-002
2025	 2.0150000000e+002	 4.03323e-002
2026	 2.0156250000e+002	 3.95785e-002
2027	 2.0162500000e+002	 6.40535e-002
2028	 2.0168750000e+002	 9.03648e-002
2029	 2.0175000000e+002	 8.62132e-002
2030	 2.0181250000e+002	 5.92936e-002
2031	 2.0187500000e+002	 6.97242e-002
2032	 2.0193750000e+002	 6.47330e-002
2033	 2.0200000000e+002	 7.85732e-002
2034	 2.0206250000e+002	 9.21119e-002
2035	 2.0212500000e+002	 5.16530e-002
2036	 2.0218750000e+002	 4.35405e-002
2037	 2.0225000000e+002	 3.80940e-002
2038	 2.0231250000e+002	 5.69657e-002
2039	 2.0237500000e+002	 1.00315e-001
2040	 2.0243750000e+002	 8.11173e-002
2041	 2.0250000000e+002	 9.70821e-002
2042	 2.0256250000e+002	 8.03070e-002
2043	 2.0262500000e+002	 7.09389e-002
2044	 2.0268750000e+002	 7.63668e-002
2045	 2.0275000000e+002	 7.02730e-002
2046	 2.0281250000e+002	 4.32429e-002
2047	 2.0287500000e+002	 4.66220e-002
2048	 2.0293750000e+002	 7.72274e-002
2049	 2.0300000000e+002	 8.81889e-002
2050	 2.0306250000e+002	 6.90407e-002
2051	 2.0312500000e+002	 4.43680e-002
2052	 2.0318750000e+002	 4.86564e-002
2053	 2.0325000000e+002	 7.46387e-002
2054	 2.0331250000e+002	 7.62684e-002
2055	 2.0337500000e+002	 6.35252e-002
2056	 2.0343750000e+002	 5.47701e-002
2057	 2.0350000000e+002	 5.61464e-002
2058	 2.0356250000e+002	 9.11977e-002
2059	 2.0362500000e+002	 8.54832e-002
2060	 2.0368750000e+002	 4.63973e-002
2061	 2.0375000000e+002	 4.06683e-002
2062	 2.0381250000e+002	 6.57950e-002
2063	 2.0387500000e+002	 1.15745e-001
2064	 2.0393750000e+002	 9.74257e-002
2065	 2.0400000000e+002	 4.24533e-002
2066	 2.0406250000e+002	 8.32087e-002
2067	 2.0412500000e+002	 9.13582e-002
2068	 2.0418750000e+002	 5.79003e-002
2069	 2.0425000000e+002	 4.70002e-002
2070	 2.0431250000e+002	 4.89611e-002
2071	 2.0437500000e+002	 4.78916e-002
2072	 2.0443750000e+002	 4.05141e-002
2073	 2.0450000000e+002	 4.14063e-002
2074	 2.0456250000e+002	 4.00214e-002
2075	 2.0462500000e+002	 5.71404e-002
2076	 2.0468750000e+002	 8.43668e-002
2077	 2.0475000000e+002	 5.06055e-002
2078	 2.0481250000e+002	 1.01600e-001
2079	 2.0487500000e+002	 1.11310e-001
2080	 2.0493750000e+002	 5.85122e-002
2081	 2.0500000000e+002	 5.15853e-002
2082	 2.0506250000e+002	 6.46523e-002
2083	 2.0512500000e+002	 7.33938e-002
2084	 2.0518750000e+002	 1.27336e-001
2085	 2.0525000000e+002	 1.41430e-001
2086	 2.0531250000e+002	 9.05324e-002
2087	 2.0537500000e+002	 9.62917e-002
2088	 2.0543750000e+002	 9.43229e-002
2089	 2.0550000000e+002	 1.15794e-001
2090	 2.0556250000e+002	 1.12937e-001
2091	 2.0562500000e+002	 9.95064e-002
2092	 2.0568750000e+002	 1.13481e-001
2093	 2.0575000000e+002	 8.28667e-002
2094	 2.0581250000e+002	 7.97241e-002
2095	 2.0587500000e+002	 1.00803e-001
2096	 2.0593750000e+002	 1.14482e-001
2097	 2.0600000000e+002	 1.31993e-001
2098	 2.0606250000e+002	 1.29668e-001
2099	 2.0612500000e+002	 1.10344e-001
2100	 2.0618750000e+002	 8.26246e-002
2101	 2.0625000000e+002	 6.13115e-002
2102	 2.0631250000e+002	 7.21576e-002
2103	 2.0637500000e+002	 6.78820e-002
2104	 2.0643750000e+002	 4.75194e-002
2105	 2.0650000000e+002	 8.19802e-002
2106	 2.0656250000e+002	 6.76192e-002
2107	 2.0662500000e+002	 8.56889e-002
2108	 2.0668750000e+002	 2.66506e-001
2109	 2.0675000000e+002	 2.50864e-001
2110	 2.0681250000e+002	 1.61889e-001
2111	 2.0687500000e+002	 1.63980e-001
2112	 2.0693750000e+002	 1.16465e-001
2113	 2.0700000000e+002	 1.25321e-001
2114	 2.0706250000e+002	 1.17480e-001
2115	 2.0712500000e+002	 7.02958e-002
2116	 2.0718750000e+002	 3.28611e-002
2117	 2.0725000000e+002	 5.27947e-002
2118	 2.0731250000e+002	 9.80630e-002
2119	 2.0737500000e+002	 1.37164e-001
2120	 2.0743750000e+002	 1.61870e-001
2121	 2.0750000000e+002	 9.59582e-002
2122	 2.0756250000e+002	 1.27112e-001
2123	 2.0762500000e+002	 1.84151e-001
2124	 2.0768750000e+002	 1.07710e-001
2125	 2.0775000000e+002	 5.37339e-002
2126	 2.0781250000e+002	 1.14840e-001
2127	 2.0787500000e+002	 1.66651e-001
2128	 2.0793750000e+002	 2.06837e-001
2129	 2.0800000000e+002	 2.64751e-001
2130	 2.0806250000e+002	 1.50077e-001
2131	 2.0812500000e+002	 1.28292e-001
2132	 2.0818750000e+002	 1.86477e-001
2133	 2.0825000000e+002	 3.02396e-001
2134	 2.0831250000e+002	 2.12058e-001
2135	 2.0837500000e+002	 1.96609e-001
2136	 2.0843750000e+002	 1.29844e-001
2137	 2.0850000000e+002	 1.53802e-001
2138	 2.0856250000e+002	 2.84493e-001
2139	 2.0862500000e+002	 3.04729e-001
2140	 2.0868750000e+002	 3.37428e-001
2141	 2.0875000000e+002	 2.61570e-001
2142	 2.0881250000e+002	 1.89725e-001
2143	 2.0887500000e+002	 2.88098e-001
2144	 2.0893750000e+002	 1.45078e-001
2145	 2.0900000000e+002	 1.17242e-001
2146	 2.0906250000e+002	 2.52831e-001
2147	 2.0912500000e+002	 2.58675e-001
2148	 2.0918750000e+002	 4.07652e-001
2149	 2.0925000000e+002	 5.40601e-001
2150	 2.0931250000e+002	 2.86057e-001
2151	 2.0937500000e+002	 1.97158e-001
2152	 2.0943750000e+002	 1.75407e-001
2153	 2.0950000000e+002	 1.73372e-001
2154	 2.0956250000e+002	 2.47364e-001
2155	 2.0962500000e+002	 2.14657e-001
2156	 2.0968750000e+002	 2.62322e-001
2157	 2.0975000000e+002	 1.92886e-001
2158	 2.0981250000e+002	 2.11136e-001
2159	 2.0987500000e+002	 2.09129e-001
2160	 2.0993750000e+002	 1.62234e-001
2161	 2.1000000000e+002	 2.70178e-001
2162	 2.1006250000e+002	 2.02284e-001
2163	 2.1012500000e+002	 9.12915e-002
2164	 2.1018750000e+002	 3.14486e-001
2165	 2.1025000000e+002	 5.42342e-001
2166	 2.1031250000e+002	 3.71893e-001
2167	 2.1037500000e+002	 2.88225e-001
2168	 2.1043750000e+002	 1.31061e-001
2169	 2.1050000000e+002	 1.94927e-001
2170	 2.1056250000e+002	 3.63095e-001
2171	 2.1062500000e+002	 2.52562e-001
2172	 2.1068750000e+002	 2.59738e-001
2173	 2.1075000000e+002	 3.09806e-001
2174	 2.1081250000e+002	 2.73584e-001
2175	 2.1087500000e+002	 4.16563e-001
2176	 2.1093750000e+002	 5.75212e-001
2177	 2.1100000000e+002	 4.54864e-001
2178	 2.1106250000e+002	 2.76620e-001
2179	 2.1112500000e+002	 2.48165e-001
2180	 2.1118750000e+002	 3.40749e-001
2181	 2.1125000000e+002	 3.22804e-001
2182	 2.1131250000e+002	 3.72262e-001
2183	 2.1137500000e+002	 3.48158e-001
2184	 2.1143750000e+002	 4.26059e-001
2185	 2.1150000000e+002	 5.88107e-001
2186	 2.1156250000e+002	 8.92925e-001
2187	 2.1162500000e+002	 5.96204e-001
2188	 2.1168750000e+002	 8.29199e-001
2189	 2.1175000000e+002	 5.66281e-001
2190	 2.1181250000e+002	 5.59243e-001
2191	 2.1187500000e+002	 8.21515e-001
2192	 2.1193750000e+002	 7.30671e-001
2193	 2.1200000000e+002	 5.70430e-001
2194	 2.1206250000e+002	 5.97024e-001
2195	 2.1212500000e+002	 5.19900e-001
2196	 2.1218750000e+002	 1.82981e-001
2197	 2.1225000000e+002	 2.98627e-001
2198	 2.1231250000e+002	 6.49536e-001
2199	 2.1237500000e+002	 6.30832e-001
2200	 2.1243750000e+002	 6.86197e-001
2201	 2.1250000000e+002	 5.21681e-001
2202	 2.1256250000e+002	 8.08719e-001
2203	 2.1262500000e+002	 9.85561e-001
2204	 2.1268750000e+002	 1.21472e+000
2205	 2.1275000000e+002	 7.50344e-001
2206	 2.1281250000e+002	 3.62018e-001
2207	 2.1287500000e+002	 5.31184e-001
2208	 2.1293750000e+002	 4.92192e-001
2209	 2.1300000000e+002	 7.12853e-001
2210	 2.1306250000e+002	 7.19193e-001
2211	 2.1312500000e+002	 4.54686e-001
2212	 2.1318750000e+002	 5.16198e-001
2213	 2.1325000000e+002	 1.03095e+000
2214	 2.1331250000e+002	 1.13446e+000
2215	 2.1337500000e+002	 1.34353e+000
2216	 2.1343750000e+002	 1.25667e+000
2217	 2.1350000000e+002	 1.00990e+000
2218	 2.1356250000e+002	 1.21801e+000
2219	 2.1362500000e+002	 1.77134e+000
2220	 2.1368750000e+002	 1.02325e+000
2221	 2.1375000000e+002	 4.80565e-001
2222	 2.1381250000e+002	 5.68685e-001
2223	 2.1387500000e+002	 7.53003e-001
2224	 2.1393750000e+002	 8.84272e-001
2225	 2.1400000000e+002	 1.08438e+000
2226	 2.1406250000e+002	 1.05049e+000
2227	 2.1412500000e+002	 1.38240e+000
2228	 2.1418750000e+002	 1.17798e+000
2229	 2.1425000000e+002	 2.12091e+000
2230	 2.1431250000e+002	 1.67277e+000
2231	 2.1437500000e+002	 1.29077e+000
2232	 2.1443750000e+002	 1.20912e+000
2233	 2.1450000000e+002	 8.77422e-001
2234	 2.1456250000e+002	 4.56490e-001
2235	 2.1462500000e+002	 5.86257e-001
2236	 2.1468750000e+002	 1.05646e+000
2237	 2.1475000000e+002	 8.04644e-001
2238	 2.1481250000e+002	 5.77017e-001
2239	 2.1487500000e+002	 4.74150e-001
2240	 2.1493750000e+002	 7.61936e-001
2241	 2.1500000000e+002	 9.12660e-001
2242	 2.1506250000e+002	 1.02766e+000
2243	 2.1512500000e+002	 7.45196e-001
2244	 2.1518750000e+002	 6.86202e-001
2245	 2.1525000000e+002	 7.33630e-001
2246	 2.1531250000e+002	 9.78068e-001
2247	 2.1537500000e+002	 5.95569e-001
2248	 2.1543750000e+002	 6.09804e-001
2249	 2.1550000000e+002	 4.38308e-001
2250	 2.1556250000e+002	 5.37797e-001
2251	 2.1562500000e+002	 5.82140e-001
2252	 2.1568750000e+002	 9.20793e-001
2253	 2.1575000000e+002	 8.52868e-001
2254	 2.1581250000e+002	 6.92663e-001
2255	 2.1587500000e+002	 1.01443e+000
2256	 2.1593750000e+002	 7.99831e-001
2257	 2.1600000000e+002	 5.94436e-001
2258	 2.1606250000e+002	 6.54570e-001
2259	 2.1612500000e+002	 6.72076e-001
2260	 2.1618750000e+002	 3.82537e-001
2261	 2.1625000000e+002	 5.68470e-001
2262	 2.1631250000e+002	 6.01104e-001
2263	 2.1637500000e+002	 8.82073e-001
2264	 2.1643750000e+002	 1.39836e+000
2265	 2.1650000000e+002	 7.25542e-001
2266	 2.1656250000e+002	 3.86191e-001
2267	 2.1662500000e+002	 3.99359e-001
2268	 2.1668750000e+002	 5.47842e-001
2269	 2.1675000000e+002	 6.03983e-001
2270	 2.1681250000e+002	 4.36410e-001
2271	 2.1687500000e+002	 3.76821e-001
2272	 2.1693750000e+002	 5.24547e-001
2273	 2.1700000000e+002	 7.85602e-001
2274	 2.1706250000e+002	 6.41766e-001
2275	 2.1712500000e+002	 4.68967e-001
2276	 2.1718750000e+002	 4.25297e-001
2277	 2.1725000000e+002	 3.08118e-001
2278	 2.1731250000e+002	 3.36302e-001
2279	 2.1737500000e+002	 2.91528e-001
2280	 2.1743750000e+002	 4.63196e-001
2281	 2.1750000000e+002	 4.30309e-001
2282	 2.1756250000e+002	 3.55468e-001
2283	 2.1762500000e+002	 3.66096e-001
2284	 2.1768750000e+002	 1.31845e-001
2285	 2.1775000000e+002	 3.36515e-001
2286	 2.1781250000e+002	 4.07312e-001
2287	 2.1787500000e+002	 1.69743e-001
2288	 2.1793750000e+002	 2.48590e-001
2289	 2.1800000000e+002	 3.08710e-001
2290	 2.1806250000e+002	 2.68590e-001
2291	 2.1812500000e+002	 2.95854e-001
2292	 2.1818750000e+002	 3.05478e-001
2293	 2.1825000000e+002	 3.74415e-001
2294	 2.1831250000e+002	 2.82729e-001
2295	 2.1837500000e+002	 3.35067e-001
2296	 2.1843750000e+002	 2.69829e-001
2297	 2.1850000000e+002	 3.31233e-001
2298	 2.1856250000e+002	 3.23930e-001
2299	 2.1862500000e+002	 1.83646e-001
2300	 2.1868750000e+002	 3.65801e-001
2301	 2.1875000000e+002	 3.58277e-001
2302	 2.1881250000e+002	 2.07163e-001
2303	 2.1887500000e+002	 1.43193e-001
2304	 2.1893750000e+002	 1.68308e-001
2305	 2.1900000000e+002	 2.17249e-001
2306	 2.1906250000e+002	 2.49316e-001
2307	 2.1912500000e+002	 1.81966e-001
2308	 2.1918750000e+002	 1.91718e-001
2309	 2.1925000000e+002	 2.74219e-001
2310	 2.1931250000e+002	 2.06925e-001
2311	 2.1937500000e+002	 3.01597e-001
2312	 2.1943750000e+002	 2.83743e-001
2313	 2.1950000000e+002	 1.81101e-001
2314	 2.1956250000e+002	 1.44201e-001
2315	 2.1962500000e+002	 1.63426e-001
2316	 2.1968750000e+002	 2.21475e-001
2317	 2.1975000000e+002	 1.60323e-001
2318	 2.1981250000e+002	 2.52521e-001
2319	 2.1987500000e+002	 1.19298e-001
2320	 2.1993750000e+002	 1.40440e-001
2321	 2.2000000000e+002	 1.24833e-001
2322	 2.2006250000e+002	 1.53266e-001
2323	 2.2012500000e+002	 2.25852e-001
2324	 2.2018750000e+002	 2.89378e-001
2325	 2.2025000000e+002	 2.81384e-001
2326	 2.2031250000e+002	 1.87372e-001
2327	 2.2037500000e+002	 2.40797e-001
2328	 2.2043750000e+002	 2.37894e-001
2329	 2.2050000000e+002	 2.00554e-001
2330	 2.2056250000e+002	 1.10436e-001
2331	 2.2062500000e+002	 9.04306e-002
2332	 2.2068750000e+002	 1.18629e-001
2333	 2.2075000000e+002	 1.03019e-001
2334	 2.2081250000e+002	 1.73272e-001
2335	 2.2087500000e+002	 3.10079e-001
2336	 2.2093750000e+002	 2.56077e-001
2337	 2.2100000000e+002	 2.08941e-001
2338	 2.2106250000e+002	 3.31230e-001
2339	 2.2112500000e+002	 2.14444e-001
2340	 2.2118750000e+002	 7.24704e-002
2341	 2.2125000000e+002	 5.11489e-002
2342	 2.2131250000e+002	 9.99914e-002
2343	 2.2137500000e+002	 9.33388e-002
2344	 2.2143750000e+002	 1.03500e-001
2345	 2.2150000000e+002	 1.37443e-001
2346	 2.2156250000e+002	 1.48673e-001
2347	 2.2162500000e+002	 1.08066e-001
2348	 2.2168750000e+002	 1.30815e-001
2349	 2.2175000000e+002	 7.32329e-002
2350	 2.2181250000e+002	 8.74276e-002
2351	 2.2187500000e+002	 9.77953e-002
2352	 2.2193750000e+002	 1.14546e-001
2353	 2.2200000000e+002	 9.48423e-002
2354	 2.2206250000e+002	 6.05576e-002
2355	 2.2212500000e+002	 9.61268e-002
2356	 2.2218750000e+002	 1.47159e-001
2357	 2.2225000000e+002	 5.07081e-002
2358	 2.2231250000e+002	 4.51133e-002
2359	 2.2237500000e+002	 4.93377e-002
2360	 2.2243750000e+002	 4.92372e-002
2361	 2.2250000000e+002	 5.05113e-002
2362	 2.2256250000e+002	 4.85443e-002
2363	 2.2262500000e+002	 5.75861e-002
2364	 2.2268750000e+002	 6.25312e-002
2365	 2.2275000000e+002	 4.92925e-002
2366	 2.2281250000e+002	 3.49092e-002
2367	 2.2287500000e+002	 4.80477e-002
2368	 2.2293750000e+002	 6.09275e-002
2369	 2.2300000000e+002	 3.94049e-002
2370	 2.2306250000e+002	 3.60328e-002
2371	 2.2312500000e+002	 6.69433e-002
2372	 2.2318750000e+002	 9.75110e-002
2373	 2.2325000000e+002	 9.31638e-002
2374	 2.2331250000e+002	 6.41959e-002
2375	 2.2337500000e+002	 7.39506e-002
2376	 2.2343750000e+002	 6.56869e-002
2377	 2.2350000000e+002	 7.96662e-002
2378	 2.2356250000e+002	 8.28611e-002
2379	 2.2362500000e+002	 8.34811e-002
2380	 2.2368750000e+002	 1.12292e-001
2381	 2.2375000000e+002	 6.49847e-002
2382	 2.2381250000e+002	 2.47084e-002
2383	 2.2387500000e+002	 3.06947e-002
2384	 2.2393750000e+002	 8.54909e-002
2385	 2.2400000000e+002	 8.68319e-002
2386	 2.2406250000e+002	 5.46306e-002
2387	 2.2412500000e+002	 5.71988e-002
2388	 2.2418750000e+002	 8.78351e-002
2389	 2.2425000000e+002	 4.65216e-002
2390	 2.2431250000e+002	 3.07815e-002
2391	 2.2437500000e+002	 3.58931e-002
2392	 2.2443750000e+002	 3.32997e-002
2393	 2.2450000000e+002	 3.95236e-002
2394	 2.2456250000e+002	 4.33838e-002
2395	 2.2462500000e+002	 5.68734e-002
2396	 2.2468750000e+002	 6.70985e-002
2397	 2.2475000000e+002	 8.77065e-002
2398	 2.2481250000e+002	 1.33930e-001
2399	 2.2487500000e+002	 1.09240e-001
2400	 2.2493750000e+002	 2.77339e-002
2401	 2.2500000000e+002	 5.44384e-002
2402	 2.2506250000e+002	 7.75593e-002
2403	 2.2512500000e+002	 4.04720e-002
2404	 2.2518750000e+002	 3.42075e-002
2405	 2.2525000000e+002	 7.27106e-002
2406	 2.2531250000e+002	 6.00183e-002
2407	 2.2537500000e+002	 2.82143e-002
2408	 2.2543750000e+002	 3.66718e-002
2409	 2.2550000000e+002	 6.38589e-002
2410	 2.2556250000e+002	 5.19201e-002
2411	 2.2562500000e+002	 4.54833e-002
2412	 2.2568750000e+002	 5.97006e-002
2413	 2.2575000000e+002	 5.97821e-002
2414	 2.2581250000e+002	 5.71338e-002
2415	 2.2587500000e+002	 3.69124e-002
2416	 2.2593750000e+002	 5.46241e-002
2417	 2.2600000000e+002	 5.56170e-002
2418	 2.2606250000e+002	 7.71313e-002
2419	 2.2612500000e+002	 6.01943e-002
2420	 2.2618750000e+002	 4.38412e-002
2421	 2.2625000000e+002	 5.16407e-002
2422	 2.2631250000e+002	 5.49629e-002
2423	 2.2637500000e+002	 4.09740e-002
2424	 2.2643750000e+002	 4.87305e-002
2425	 2.2650000000e+002	 4.20126e-002
2426	 2.2656250000e+002	 8.03414e-002
2427	 2.2662500000e+002	 5.36164e-002
2428	 2.2668750000e+002	 2.25884e-002
2429	 2.2675000000e+002	 2.15942e-002
2430	 2.2681250000e+002	 1.48911e-002
2431	 2.2687500000e+002	 4.25416e-002
2432	 2.2693750000e+002	 8.95464e-002
2433	 2.2700000000e+002	 6.12052e-002
2434	 2.2706250000e+002	 3.06509e-002
2435	 2.2712500000e+002	 2.19250e-002
2436	 2.2718750000e+002	 3.99668e-002
2437	 2.2725000000e+002	 4.49955e-002
2438	 2.2731250000e+002	 3.68875e-002
2439	 2.2737500000e+002	 2.98902e-002
2440	 2.2743750000e+002	 3.22854e-002
2441	 2.2750000000e+002	 5.01189e-002
2442	 2.2756250000e+002	 3.14476e-002
2443	 2.2762500000e+002	 2.41536e-002
2444	 2.2768750000e+002	 5.34042e-002
2445	 2.2775000000e+002	 4.45244e-002
2446	 2.2781250000e+002	 3.36519e-002
2447	 2.2787500000e+002	 4.90685e-002
2448	 2.2793750000e+002	 5.02048e-002
2449	 2.2800000000e+002	 4.14959e-002
2450	 2.2806250000e+002	 2.71811e-002
2451	 2.2812500000e+002	 2.36417e-002
2452	 2.2818750000e+002	 3.42044e-002
2453	 2.2825000000e+002	 2.71844e-002
2454	 2.2831250000e+002	 4.28837e-002
2455	 2.2837500000e+002	 5.86429e-002
2456	 2.2843750000e+002	 4.55750e-002
2457	 2.2850000000e+002	 2.29793e-002
2458	 2.2856250000e+002	 2.50877e-002
2459	 2.2862500000e+002	 2.92715e-002
2460	 2.2868750000e+002	 3.52577e-002
2461	 2.2875000000e+002	 4.61194e-002
2462	 2.2881250000e+002	 4.39012e-002
2463	 2.2887500000e+002	 5.58463e-002
2464	 2.2893750000e+002	 3.23612e-002
2465	 2.2900000000e+002	 3.42404e-002
2466	 2.2906250000e+002	 2.68444e-002
2467	 2.2912500000e+002	 2.93167e-002
2468	 2.2918750000e+002	 2.86803e-002
2469	 2.2925000000e+002	 3.88378e-002
2470	 2.2931250000e+002	 3.48855e-002
2471	 2.2937500000e+002	 4.82010e-002
2472	 2.2943750000e+002	 2.85539e-002
2473	 2.2950000000e+002	 2.31314e-002
2474	 2.2956250000e+002	 2.00583e-002
2475	 2.2962500000e+002	 1.86220e-002
2476	 2.2968750000e+002	 1.35964e-002
2477	 2.2975000000e+002	 2.32871e-002
2478	 2.2981250000e+002	 3.28008e-002
2479	 2.2987500000e+002	 4.28902e-002
2480	 2.2993750000e+002	 5.49263e-002
2481	 2.3000000000e+002	 3.75228e-002
2482	 2.3006250000e+002	 3.60530e-002
2483	 2.3012500000e+002	 3.93655e-002
2484	 2.3018750000e+002	 3.79566e-002
2485	 2.3025000000e+002	 3.43244e-002
2486	 2.3031250000e+002	 3.26198e-002
2487	 2.3037500000e+002	 1.99243e-002
2488	 2.3043750000e+002	 2.15589e-002
2489	 2.3050000000e+002	 1.92683e-002
2490	 2.3056250000e+002	 7.34525e-003
2491	 2.3062500000e+002	 9.64447e-003
2492	 2.3068750000e+002	 1.25933e-002
2493	 2.3075000000e+002	 9.18547e-003
2494	 2.3081250000e+002	 1.15062e-002
2495	 2.3087500000e+002	 1.39094e-002
2496	 2.3093750000e+002	 1.86884e-002
2497	 2.3100000000e+002	 2.27693e-002
2498	 2.3106250000e+002	 1.86163e-002
2499	 2.3112500000e+002	 2.11377e-002
2500	 2.3118750000e+002	 2.02549e-002
2501	 2.3125000000e+002	 1.84203e-002
2502	 2.3131250000e+002	 1.43901e-002
2503	 2.3137500000e+002	 2.01477e-002
2504	 2.3143750000e+002	 3.38073e-002
2505	 2.3150000000e+002	 4.58230e-002
2506	 2.3156250000e+002	 2.31612e-002
2507	 2.3162500000e+002	 2.55627e-002
2508	 2.3168750000e+002	 3.92436e-002
2509	 2.3175000000e+002	 2.69835e-002
2510	 2.3181250000e+002	 2.03522e-002
2511	 2.3187500000e+002	 2.72309e-002
2512	 2.3193750000e+002	 2.21294e-002
2513	 2.3200000000e+002	 8.73567e-003
2514	 2.3206250000e+002	 6.32004e-003
2515	 2.3212500000e+002	 6.53623e-003
2516	 2.3218750000e+002	 1.35190e-002
2517	 2.3225000000e+002	 2.71057e-002
2518	 2.3231250000e+002	 2.93426e-002
2519	 2.3237500000e+002	 3.11388e-002
2520	 2.3243750000e+002	 1.98654e-002
2521	 2.3250000000e+002	 1.92650e-002
2522	 2.3256250000e+002	 2.77896e-002
2523	 2.3262500000e+002	 2.34613e-002
2524	 2.3268750000e+002	 1.79346e-002
2525	 2.3275000000e+002	 7.64940e-003
2526	 2.3281250000e+002	 8.61703e-003
2527	 2.3287500000e+002	 1.28915e-002
2528	 2.3293750000e+002	 1.83562e-002
2529	 2.3300000000e+002	 2.14462e-002
2530	 2.3306250000e+002	 8.79085e-003
2531	 2.3312500000e+002	 7.84201e-003
2532	 2.3318750000e+002	 1.61749e-002
2533	 2.3325000000e+002	 1.73222e-002
2534	 2.3331250000e+002	 2.49140e-002
2535	 2.3337500000e+002	 1.38575e-002
2536	 2.3343750000e+002	 2.51480e-002
2537	 2.3350000000e+002	 3.68626e-002
2538	 2.3356250000e+002	 2.78335e-002
2539	 2.3362500000e+002	 1.42202e-002
2540	 2.3368750000e+002	 1.11035e-002
2541	 2.3375000000e+002	 1.48491e-002
2542	 2.3381250000e+002	 1.59242e-002
2543	 2.3387500000e+002	 1.58036e-002
2544	 2.3393750000e+002	 1.86660e-002
2545	 2.3400000000e+002	 1.35346e-002
2546	 2.3406250000e+002	 1.34476e-002
2547	 2.3412500000e+002	 2.33298e-002
2548	 2.3418750000e+002	 1.68143e-002
2549	 2.3425000000e+002	 2.01088e-002
2550	 2.3431250000e+002	 1.91476e-002
2551	 2.3437500000e+002	 1.50335e-002
2552	 2.3443750000e+002	 1.47705e-002
2553	 2.3450000000e+002	 1.46258e-002
2554	 2.3456250000e+002	 2.15810e-002
2555	 2.3462500000e+002	 2.97177e-002
2556	 2.3468750000e+002	 2.25388e-002
2557	 2.3475000000e+002	 1.94735e-002
2558	 2.3481250000e+002	 2.26874e-002
2559	 2.3487500000e+002	 1.50798e-002
2560	 2.3493750000e+002	 2.18943e-002
2561	 2.3500000000e+002	 1.33520e-002
2562	 2.3506250000e+002	 1.74223e-002
2563	 2.3512500000e+002	 2.04463e-002
2564	 2.3518750000e+002	 1.27370e-002
2565	 2.3525000000e+002	 1.41252e-002
2566	 2.3531250000e+002	 1.58456e-002
2567	 2.3537500000e+002	 1.65715e-002
2568	 2.3543750000e+002	 2.18549e-002
2569	 2.3550000000e+002	 3.97669e-002
2570	 2.3556250000e+002	 4.10445e-002
2571	 2.3562500000e+002	 1.55749e-002
2572	 2.3568750000e+002	 6.71866e-003
2573	 2.3575000000e+002	 1.32378e-002
2574	 2.3581250000e+002	 2.41746e-002
2575	 2.3587500000e+002	 2.09305e-002
2576	 2.3593750000e+002	 1.40560e-002
2577	 2.3600000000e+002	 7.65149e-003
2578	 2.3606250000e+002	 7.20993e-003
2579	 2.3612500000e+002	 1.27900e-002
2580	 2.3618750000e+002	 2.38418e-002
2581	 2.3625000000e+002	 1.48370e-002
2582	 2.3631250000e+002	 1.68799e-002
2583	 2.3637500000e+002	 2.68436e-002
2584	 2.3643750000e+002	 2.19435e-002
2585	 2.3650000000e+002	 1.52985e-002
2586	 2.3656250000e+002	 1.89286e-002
2587	 2.3662500000e+002	 1.06668e-002
2588	 2.3668750000e+002	 1.52253e-002
2589	 2.3675000000e+002	 1.88315e-002
2590	 2.3681250000e+002	 1.93052e-002
2591	 2.3687500000e+002	 1.89616e-002
2592	 2.3693750000e+002	 2.51724e-002
2593	 2.3700000000e+002	 3.07044e-002
2594	 2.3706250000e+002	 2.07899e-002
2595	 2.3712500000e+002	 1.56690e-002
2596	 2.3718750000e+002	 2.20740e-002
2597	 2.3725000000e+002	 2.32060e-002
2598	 2.3731250000e+002	 1.59706e-002
2599	 2.3737500000e+002	 1.77386e-002
2600	 2.3743750000e+002	 2.20637e-002
2601	 2.3750000000e+002	 1.81484e-002
2602	 2.3756250000e+002	 1.28909e-002
2603	 2.3762500000e+002	 1.89754e-002
2604	 2.3768750000e+002	 2.45050e-002
2605	 2.3775000000e+002	 1.75362e-002
2606	 2.3781250000e+002	 2.11075e-002
2607	 2.3787500000e+002	 3.05175e-002
2608	 2.3793750000e+002	 1.81008e-002
2609	 2.3800000000e+002	 1.64420e-002
2610	 2.3806250000e+002	 1.79778e-002
2611	 2.3812500000e+002	 2.23038e-002
2612	 2.3818750000e+002	 1.56493e-002
2613	 2.3825000000e+002	 1.72135e-002
2614	 2.3831250000e+002	 1.21843e-002
2615	 2.3837500000e+002	 9.23637e-003
2616	 2.3843750000e+002	 8.62070e-003
2617	 2.3850000000e+002	 9.13833e-003
2618	 2.3856250000e+002	 1.21030e-002
2619	 2.3862500000e+002	 1.35009e-002
2620	 2.3868750000e+002	 1.65552e-002
2621	 2.3875000000e+002	 1.61675e-002
2622	 2.3881250000e+002	 2.06922e-002
2623	 2.3887500000e+002	 1.34942e-002
2624	 2.3893750000e+002	 1.54459e-002
2625	 2.3900000000e+002	 1.27272e-002
2626	 2.3906250000e+002	 2.12267e-002
2627	 2.3912500000e+002	 2.71312e-002
2628	 2.3918750000e+002	 2.43396e-002
2629	 2.3925000000e+002	 1.39884e-002
2630	 2.3931250000e+002	 1.23383e-002
2631	 2.3937500000e+002	 1.38922e-002
2632	 2.3943750000e+002	 1.86990e-002
2633	 2.3950000000e+002	 2.24531e-002
2634	 2.3956250000e+002	 1.60209e-002
2635	 2.3962500000e+002	 1.87930e-002
2636	 2.3968750000e+002	 2.11264e-002
2637	 2.3975000000e+002	 2.20566e-002
2638	 2.3981250000e+002	 2.99375e-002
2639	 2.3987500000e+002	 1.52038e-002
2640	 2.3993750000e+002	 2.92964e-002
2641	 2.4000000000e+002	 3.31169e-002
2642	 2.4006250000e+002	 1.68868e-002
2643	 2.4012500000e+002	 3.16050e-002
2644	 2.4018750000e+002	 2.05179e-002
2645	 2.4025000000e+002	 5.37391e-003
2646	 2.4031250000e+002	 9.73312e-003
2647	 2.4037500000e+002	 1.31702e-002
2648	 2.4043750000e+002	 1.45582e-002
2649	 2.4050000000e+002	 1.28308e-002
2650	 2.4056250000e+002	 1.65396e-002
2651	 2.4062500000e+002	 1.37459e-002
2652	 2.4068750000e+002	 1.17409e-002
2653	 2.4075000000e+002	 2.29761e-002
2654	 2.4081250000e+002	 2.33899e-002
2655	 2.4087500000e+002	 2.31207e-002
2656	 2.4093750000e+002	 2.69073e-002
2657	 2.4100000000e+002	 2.62350e-002
2658	 2.4106250000e+002	 1.85662e-002
2659	 2.4112500000e+002	 1.13932e-002
2660	 2.4118750000e+002	 1.05622e-002
2661	 2.4125000000e+002	 1.27101e-002
2662	 2.4131250000e+002	 1.56271e-002
2663	 2.4137500000e+002	 2.20534e-002
2664	 2.4143750000e+002	 2.27444e-002
2665	 2.4150000000e+002	 2.28088e-002
2666	 2.4156250000e+002	 1.45218e-002
2667	 2.4162500000e+002	 8.35191e-003
2668	 2.4168750000e+002	 1.25665e-002
2669	 2.4175000000e+002	 1.96310e-002
2670	 2.4181250000e+002	 1.20800e-002
2671	 2.4187500000e+002	 1.54829e-002
2672	 2.4193750000e+002	 1.89244e-002
2673	 2.4200000000e+002	 1.88057e-002
2674	 2.4206250000e+002	 1.44537e-002
2675	 2.4212500000e+002	 1.62431e-002
2676	 2.4218750000e+002	 2.03977e-002
2677	 2.4225000000e+002	 1.25600e-002
2678	 2.4231250000e+002	 1.01560e-002
2679	 2.4237500000e+002	 1.51334e-002
2680	 2.4243750000e+002	 1.96868e-002
2681	 2.4250000000e+002	 1.70660e-002
2682	 2.4256250000e+002	 1.43416e-002
2683	 2.4262500000e+002	 1.27887e-002
2684	 2.4268750000e+002	 9.07350e-003
2685	 2.4275000000e+002	 8.57714e-003
2686	 2.4281250000e+002	 1.25739e-002
2687	 2.4287500000e+002	 1.00438e-002
2688	 2.4293750000e+002	 9.92930e-003
2689	 2.4300000000e+002	 1.61169e-002
2690	 2.4306250000e+002	 2.79309e-002
2691	 2.4312500000e+002	 3.44574e-002
2692	 2.4318750000e+002	 1.87037e-002
2693	 2.4325000000e+002	 1.70028e-002
2694	 2.4331250000e+002	 1.11728e-002
2695	 2.4337500000e+002	 2.04292e-002
2696	 2.4343750000e+002	 2.75159e-002
2697	 2.4350000000e+002	 1.45399e-002
2698	 2.4356250000e+002	 1.78682e-002
2699	 2.4362500000e+002	 1.74686e-002
2700	 2.4368750000e+002	 1.70311e-002
2701	 2.4375000000e+002	 2.35441e-002
2702	 2.4381250000e+002	 1.82171e-002
2703	 2.4387500000e+002	 1.60152e-002
2704	 2.4393750000e+002	 1.00772e-002
2705	 2.4400000000e+002	 1.38845e-002
2706	 2.4406250000e+002	 2.41717e-002
2707	 2.4412500000e+002	 2.11521e-002
2708	 2.4418750000e+002	 1.47454e-002
2709	 2.4425000000e+002	 1.42484e-002
2710	 2.4431250000e+002	 2.39149e-002
2711	 2.4437500000e+002	 1.77323e-002
2712	 2.4443750000e+002	 2.15699e-002
2713	 2.4450000000e+002	 2.26291e-002
2714	 2.4456250000e+002	 2.21977e-002
2715	 2.4462500000e+002	 2.30210e-002
2716	 2.4468750000e+002	 1.99508e-002
2717	 2.4475000000e+002	 2.11806e-002
2718	 2.4481250000e+002	 1.51024e-002
2719	 2.4487500000e+002	 1.40467e-002
2720	 2.4493750000e+002	 2.71337e-002
2721	 2.4500000000e+002	 2.36541e-002
2722	 2.4506250000e+002	 2.53377e-002
2723	 2.4512500000e+002	 2.52690e-002
2724	 2.4518750000e+002	 3.31438e-002
2725	 2.4525000000e+002	 1.28639e-002
2726	 2.4531250000e+002	 9.64190e-003
2727	 2.4537500000e+002	 1.79827e-002
2728	 2.4543750000e+002	 2.41584e-002
2729	 2.4550000000e+002	 2.94766e-002
2730	 2.4556250000e+002	 2.44098e-002
2731	 2.4562500000e+002	 2.22652e-002
2732	 2.4568750000e+002	 3.34480e-002
2733	 2.4575000000e+002	 3.02527e-002
2734	 2.4581250000e+002	 2.11789e-002
2735	 2.4587500000e+002	 1.34931e-002
2736	 2.4593750000e+002	 1.56051e-002
2737	 2.4600000000e+002	 2.02698e-002
2738	 2.4606250000e+002	 1.61122e-002
2739	 2.4612500000e+002	 1.84486e-002
2740	 2.4618750000e+002	 1.82569e-002
2741	 2.4625000000e+002	 2.23231e-002
2742	 2.4631250000e+002	 2.22325e-002
2743	 2.4637500000e+002	 1.70179e-002
2744	 2.4643750000e+002	 1.03463e-002
2745	 2.4650000000e+002	 1.22127e-002
2746	 2.4656250000e+002	 2.00254e-002
2747	 2.4662500000e+002	 2.43752e-002
2748	 2.4668750000e+002	 1.59252e-002
2749	 2.4675000000e+002	 1.64777e-002
2750	 2.4681250000e+002	 1.66862e-002
2751	 2.4687500000e+002	 2.15648e-002
2752	 2.4693750000e+002	 2.16470e-002
2753	 2.4700000000e+002	 2.84686e-002
2754	 2.4706250000e+002	 3.31504e-002
2755	 2.4712500000e+002	 2.99485e-002
2756	 2.4718750000e+002	 2.11219e-002
2757	 2.4725000000e+002	 1.13321e-002
2758	 2.4731250000e+002	 1.92383e-002
2759	 2.4737500000e+002	 2.05128e-002
2760	 2.4743750000e+002	 2.77641e-002
2761	 2.4750000000e+002	 4.32757e-002
2762	 2.4756250000e+002	 2.38888e-002
2763	 2.4762500000e+002	 2.40468e-002
2764	 2.4768750000e+002	 2.43501e-002
2765	 2.4775000000e+002	 1.89976e-002
2766	 2.4781250000e+002	 1.85135e-002
2767	 2.4787500000e+002	 2.04281e-002
2768	 2.4793750000e+002	 1.03481e-002
2769	 2.4800000000e+002	 1.19519e-002
2770	 2.4806250000e+002	 1.28130e-002
2771	 2.4812500000e+002	 1.20336e-002
2772	 2.4818750000e+002	 1.31847e-002
2773	 2.4825000000e+002	 1.27667e-002
2774	 2.4831250000e+002	 1.07424e-002
2775	 2.4837500000e+002	 9.92236e-003
2776	 2.4843750000e+002	 8.11425e-003
2777	 2.4850000000e+002	 7.08077e-003
2778	 2.4856250000e+002	 1.42554e-002
2779	 2.4862500000e+002	 1.57643e-002
2780	 2.4868750000e+002	 2.50790e-002
2781	 2.4875000000e+002	 2.68958e-002
2782	 2.4881250000e+002	 1.21191e-002
2783	 2.4887500000e+002	 1.52766e-002
2784	 2.4893750000e+002	 2.35364e-002
2785	 2.4900000000e+002	 1.49156e-002
2786	 2.4906250000e+002	 2.57507e-002
2787	 2.4912500000e+002	 2.23269e-002
2788	 2.4918750000e+002	 1.06081e-002
2789	 2.4925000000e+002	 1.20767e-002
2790	 2.4931250000e+002	 1.62039e-002
2791	 2.4937500000e+002	 1.19823e-002
2792	 2.4943750000e+002	 1.63788e-002
2793	 2.4950000000e+002	 2.28150e-002
2794	 2.4956250000e+002	 1.68902e-002
2795	 2.4962500000e+002	 7.99583e-003
2796	 2.4968750000e+002	 1.15338e-002
2797	 2.4975000000e+002	 1.28645e-002
2798	 2.4981250000e+002	 1.40538e-002
2799	 2.4987500000e+002	 1.13118e-002
2800	 2.4993750000e+002	 1.95561e-002
2801	 2.5000000000e+002	 3.13899e-002
2802	 2.5006250000e+002	 2.94529e-002
2803	 2.5012500000e+002	 2.58672e-002
2804	 2.5018750000e+002	 3.03758e-002
2805	 2.5025000000e+002	 1.96355e-002
2806	 2.5031250000e+002	 2.09004e-002
2807	 2.5037500000e+002	 1.79489e-002
2808	 2.5043750000e+002	 2.56142e-002
2809	 2.5050000000e+002	 2.01726e-002
2810	 2.5056250000e+002	 3.14209e-002
2811	 2.5062500000e+002	 2.01232e-002
2812	 2.5068750000e+002	 1.67876e-002
2813	 2.5075000000e+002	 1.51452e-002
2814	 2.5081250000e+002	 1.85254e-002
2815	 2.5087500000e+002	 3.84684e-002
2816	 2.5093750000e+002	 2.09119e-002
2817	 2.5100000000e+002	 1.26637e-002
2818	 2.5106250000e+002	 2.44746e-002
2819	 2.5112500000e+002	 3.09890e-002
2820	 2.5118750000e+002	 2.01323e-002
2821	 2.5125000000e+002	 1.68173e-002
2822	 2.5131250000e+002	 3.10092e-002
2823	 2.5137500000e+002	 3.45567e-002
2824	 2.5143750000e+002	 2.38263e-002
2825	 2.5150000000e+002	 2.44597e-002
2826	 2.5156250000e+002	 1.78615e-002
2827	 2.5162500000e+002	 2.10772e-002
2828	 2.5168750000e+002	 2.37007e-002
2829	 2.5175000000e+002	 1.54366e-002
2830	 2.5181250000e+002	 1.99151e-002
2831	 2.5187500000e+002	 1.62545e-002
2832	 2.5193750000e+002	 2.37015e-002
2833	 2.5200000000e+002	 3.53456e-002
2834	 2.5206250000e+002	 3.08121e-002
2835	 2.5212500000e+002	 2.67316e-002
2836	 2.5218750000e+002	 3.14222e-002
2837	 2.5225000000e+002	 3.18651e-002
2838	 2.5231250000e+002	 4.66681e-002
2839	 2.5237500000e+002	 2.28282e-002
2840	 2.5243750000e+002	 3.08297e-002
2841	 2.5250000000e+002	 4.82877e-002
2842	 2.5256250000e+002	 2.91241e-002
2843	 2.5262500000e+002	 2.30992e-002
2844	 2.5268750000e+002	 2.77359e-002
2845	 2.5275000000e+002	 3.43017e-002
2846	 2.5281250000e+002	 2.41224e-002
2847	 2.5287500000e+002	 2.01672e-002
2848	 2.5293750000e+002	 3.28127e-002
2849	 2.5300000000e+002	 2.08644e-002
2850	 2.5306250000e+002	 4.18902e-002
2851	 2.5312500000e+002	 5.23428e-002
2852	 2.5318750000e+002	 3.12476e-002
2853	 2.5325000000e+002	 3.50494e-002
2854	 2.5331250000e+002	 3.80782e-002
2855	 2.5337500000e+002	 3.03814e-002
2856	 2.5343750000e+002	 2.58412e-002
2857	 2.5350000000e+002	 2.45990e-002
2858	 2.5356250000e+002	 3.59943e-002
2859	 2.5362500000e+002	 5.16567e-002
2860	 2.5368750000e+002	 4.70656e-002
2861	 2.5375000000e+002	 3.87998e-002
2862	 2.5381250000e+002	 3.40348e-002
2863	 2.5387500000e+002	 1.31989e-002
2864	 2.5393750000e+002	 1.22110e-002
2865	 2.5400000000e+002	 4.12086e-002
2866	 2.5406250000e+002	 3.50710e-002
2867	 2.5412500000e+002	 1.67678e-002
2868	 2.5418750000e+002	 1.22418e-002
2869	 2.5425000000e+002	 2.02957e-002
2870	 2.5431250000e+002	 4.57474e-002
2871	 2.5437500000e+002	 5.04714e-002
2872	 2.5443750000e+002	 4.31648e-002
2873	 2.5450000000e+002	 3.86174e-002
2874	 2.5456250000e+002	 3.17787e-002
2875	 2.5462500000e+002	 2.89416e-002
2876	 2.5468750000e+002	 2.15402e-002
2877	 2.5475000000e+002	 2.51644e-002
2878	 2.5481250000e+002	 6.09440e-002
2879	 2.5487500000e+002	 6.51233e-002
2880	 2.5493750000e+002	 3.79556e-002
2881	 2.5500000000e+002	 5.84979e-002
2882	 2.5506250000e+002	 3.76805e-002
2883	 2.5512500000e+002	 5.79645e-002
2884	 2.5518750000e+002	 3.80064e-002
2885	 2.5525000000e+002	 2.33145e-002
2886	 2.5531250000e+002	 3.00225e-002
2887	 2.5537500000e+002	 1.94487e-002
2888	 2.5543750000e+002	 1.50014e-002
2889	 2.5550000000e+002	 2.06732e-002
2890	 2.5556250000e+002	 3.59904e-002
2891	 2.5562500000e+002	 3.35251e-002
2892	 2.5568750000e+002	 5.07352e-002
2893	 2.5575000000e+002	 4.95964e-002
2894	 2.5581250000e+002	 5.03856e-002
2895	 2.5587500000e+002	 4.28936e-002
2896	 2.5593750000e+002	 2.20539e-002
2897	 2.5600000000e+002	 2.39876e-002
2898	 2.5606250000e+002	 3.29016e-002
2899	 2.5612500000e+002	 3.30649e-002
2900	 2.5618750000e+002	 2.79490e-002
2901	 2.5625000000e+002	 3.23840e-002
2902	 2.5631250000e+002	 4.56652e-002
2903	 2.5637500000e+002	 2.78082e-002
2904	 2.5643750000e+002	 3.54563e-002
2905	 2.5650000000e+002	 3.27718e-002
2906	 2.5656250000e+002	 5.30418e-002
2907	 2.5662500000e+002	 5.21814e-002
2908	 2.5668750000e+002	 4.43342e-002
2909	 2.5675000000e+002	 3.53960e-002
2910	 2.5681250000e+002	 2.98262e-002
2911	 2.5687500000e+002	 5.11699e-002
2912	 2.5693750000e+002	 6.10866e-002
2913	 2.5700000000e+002	 5.98380e-002
2914	 2.5706250000e+002	 6.46907e-002
2915	 2.5712500000e+002	 6.53519e-002
2916	 2.5718750000e+002	 3.35539e-002
2917	 2.5725000000e+002	 4.07725e-002
2918	 2.5731250000e+002	 4.96381e-002
2919	 2.5737500000e+002	 4.01485e-002
2920	 2.5743750000e+002	 3.96614e-002
2921	 2.5750000000e+002	 5.31777e-002
2922	 2.5756250000e+002	 2.97799e-002
2923	 2.5762500000e+002	 3.87371e-002
2924	 2.5768750000e+002	 5.29407e-002
2925	 2.5775000000e+002	 6.05629e-002
2926	 2.5781250000e+002	 7.18196e-002
2927	 2.5787500000e+002	 6.93999e-002
2928	 2.5793750000e+002	 6.70740e-002
2929	 2.5800000000e+002	 3.45041e-002
2930	 2.5806250000e+002	 1.97684e-002
2931	 2.5812500000e+002	 3.60705e-002
2932	 2.5818750000e+002	 8.23783e-002
2933	 2.5825000000e+002	 1.03171e-001
2934	 2.5831250000e+002	 9.16992e-002
2935	 2.5837500000e+002	 6.20788e-002
2936	 2.5843750000e+002	 6.27744e-002
2937	 2.5850000000e+002	 8.42370e-002
2938	 2.5856250000e+002	 9.51158e-002
2939	 2.5862500000e+002	 1.46945e-001
2940	 2.5868750000e+002	 1.17987e-001
2941	 2.5875000000e+002	 6.10071e-002
2942	 2.5881250000e+002	 7.84847e-002
2943	 2.5887500000e+002	 9.62263e-002
2944	 2.5893750000e+002	 7.73513e-002
2945	 2.5900000000e+002	 7.22751e-002
2946	 2.5906250000e+002	 5.36303e-002
2947	 2.5912500000e+002	 1.02254e-001
2948	 2.5918750000e+002	 1.63475e-001
2949	 2.5925000000e+002	 1.32338e-001
2950	 2.5931250000e+002	 9.29208e-002
2951	 2.5937500000e+002	 9.61014e-002
2952	 2.5943750000e+002	 7.76066e-002
2953	 2.5950000000e+002	 6.52270e-002
2954	 2.5956250000e+002	 5.86870e-002
2955	 2.5962500000e+002	 4.96251e-002
2956	 2.5968750000e+002	 7.47503e-002
2957	 2.5975000000e+002	 8.57945e-002
2958	 2.5981250000e+002	 1.08609e-001
2959	 2.5987500000e+002	 1.68012e-001
2960	 2.5993750000e+002	 1.33967e-001
2961	 2.6000000000e+002	 1.66334e-001
2962	 2.6006250000e+002	 1.94303e-001
2963	 2.6012500000e+002	 1.35145e-001
2964	 2.6018750000e+002	 4.84927e-002
2965	 2.6025000000e+002	 7.40786e-002
2966	 2.6031250000e+002	 7.54186e-002
2967	 2.6037500000e+002	 1.15125e-001
2968	 2.6043750000e+002	 8.54345e-002
2969	 2.6050000000e+002	 8.00727e-002
2970	 2.6056250000e+002	 8.06123e-002
2971	 2.6062500000e+002	 7.63778e-002
2972	 2.6068750000e+002	 1.33773e-001
2973	 2.6075000000e+002	 1.41034e-001
2974	 2.6081250000e+002	 2.05964e-001
2975	 2.6087500000e+002	 1.46533e-001
2976	 2.6093750000e+002	 8.75336e-002
2977	 2.6100000000e+002	 9.24701e-002
2978	 2.6106250000e+002	 9.74890e-002
2979	 2.6112500000e+002	 6.61182e-002
2980	 2.6118750000e+002	 9.34281e-002
2981	 2.6125000000e+002	 1.73468e-001
2982	 2.6131250000e+002	 1.71301e-001
2983	 2.6137500000e+002	 7.50091e-002
2984	 2.6143750000e+002	 1.02304e-001
2985	 2.6150000000e+002	 1.82513e-001
2986	 2.6156250000e+002	 1.49758e-001
2987	 2.6162500000e+002	 1.22981e-001
2988	 2.6168750000e+002	 1.29874e-001
2989	 2.6175000000e+002	 1.37687e-001
2990	 2.6181250000e+002	 1.51769e-001
2991	 2.6187500000e+002	 1.27847e-001
2992	 2.6193750000e+002	 1.02632e-001
2993	 2.6200000000e+002	 6.94117e-002
2994	 2.6206250000e+002	 9.74511e-002
2995	 2.6212500000e+002	 1.54462e-001
2996	 2.6218750000e+002	 1.49371e-001
2997	 2.6225000000e+002	 1.83566e-001
2998	 2.6231250000e+002	 2.96175e-001
2999	 2.6237500000e+002	 1.63123e-001
3000	 2.6243750000e+002	 8.06181e-002
3001	 2.6250000000e+002	 2.20954e-001
3002	 2.6256250000e+002	 4.03255e-001
3003	 2.6262500000e+002	 3.02994e-001
3004	 2.6268750000e+002	 1.92836e-001
3005	 2.6275000000e+002	 2.16119e-001
3006	 2.6281250000e+002	 3.45237e-001
3007	 2.6287500000e+002	 1.96265e-001
3008	 2.6293750000e+002	 1.49136e-001
3009	 2.6300000000e+002	 1.69196e-001
3010	 2.6306250000e+002	 2.41322e-001
3011	 2.6312500000e+002	 4.99579e-001
3012	 2.6318750000e+002	 4.60131e-001
3013	 2.6325000000e+002	 2.18136e-001
3014	 2.6331250000e+002	 1.09112e-001
3015	 2.6337500000e+002	 1.62742e-001
3016	 2.6343750000e+002	 2.06779e-001
3017	 2.6350000000e+002	 1.80123e-001
3018	 2.6356250000e+002	 9.16576e-002
3019	 2.6362500000e+002	 1.85568e-001
3020	 2.6368750000e+002	 3.33695e-001
3021	 2.6375000000e+002	 2.33171e-001
3022	 2.6381250000e+002	 4.09824e-001
3023	 2.6387500000e+002	 5.32112e-001
3024	 2.6393750000e+002	 5.23990e-001
3025	 2.6400000000e+002	 4.35201e-001
3026	 2.6406250000e+002	 2.60235e-001
3027	 2.6412500000e+002	 2.31784e-001
3028	 2.6418750000e+002	 3.37402e-001
3029	 2.6425000000e+002	 3.75373e-001
3030	 2.6431250000e+002	 4.59650e-001
3031	 2.6437500000e+002	 2.37555e-001
3032	 2.6443750000e+002	 1.69017e-001
3033	 2.6450000000e+002	 3.36882e-001
3034	 2.6456250000e+002	 5.27580e-001
3035	 2.6462500000e+002	 4.67830e-001
3036	 2.6468750000e+002	 5.33554e-001
3037	 2.6475000000e+002	 3.40153e-001
3038	 2.6481250000e+002	 6.92330e-001
3039	 2.6487500000e+002	 1.07906e+000
3040	 2.6493750000e+002	 5.91139e-001
3041	 2.6500000000e+002	 5.35188e-001
3042	 2.6506250000e+002	 2.73421e-001
3043	 2.6512500000e+002	 3.57092e-001
3044	 2.6518750000e+002	 2.97239e-001
3045	 2.6525000000e+002	 2.17885e-001
3046	 2.6531250000e+002	 2.47576e-001
3047	 2.6537500000e+002	 3.79689e-001
3048	 2.6543750000e+002	 2.47205e-001
3049	 2.6550000000e+002	 3.04170e-001
3050	 2.6556250000e+002	 4.29920e-001
3051	 2.6562500000e+002	 4.37752e-001
3052	 2.6568750000e+002	 2.98145e-001
3053	 2.6575000000e+002	 2.69496e-001
3054	 2.6581250000e+002	 2.74802e-001
3055	 2.6587500000e+002	 2.82340e-001
3056	 2.6593750000e+002	 5.40030e-001
3057	 2.6600000000e+002	 6.31707e-001
3058	 2.6606250000e+002	 5.60256e-001
3059	 2.6612500000e+002	 6.44159e-001
3060	 2.6618750000e+002	 6.91658e-001
3061	 2.6625000000e+002	 5.66583e-001
3062	 2.6631250000e+002	 7.35348e-001
3063	 2.6637500000e+002	 7.01879e-001
3064	 2.6643750000e+002	 7.06496e-001
3065	 2.6650000000e+002	 8.22790e-001
3066	 2.6656250000e+002	 6.49160e-001
3067	 2.6662500000e+002	 1.06356e+000
3068	 2.6668750000e+002	 7.27229e-001
3069	 2.6675000000e+002	 5.71759e-001
3070	 2.6681250000e+002	 7.51617e-001
3071	 2.6687500000e+002	 6.46047e-001
3072	 2.6693750000e+002	 3.98833e-001
3073	 2.6700000000e+002	 5.74024e-001
3074	 2.6706250000e+002	 6.33136e-001
3075	 2.6712500000e+002	 5.35816e-001
3076	 2.6718750000e+002	 7.03401e-001
3077	 2.6725000000e+002	 7.56221e-001
3078	 2.6731250000e+002	 4.96938e-001
3079	 2.6737500000e+002	 5.33209e-001
3080	 2.6743750000e+002	 9.89141e-001
3081	 2.6750000000e+002	 7.61244e-001
3082	 2.6756250000e+002	 7.08657e-001
3083	 2.6762500000e+002	 1.04198e+000
3084	 2.6768750000e+002	 1.25447e+000
3085	 2.6775000000e+002	 8.84855e-001
3086	 2.6781250000e+002	 4.32673e-001
3087	 2.6787500000e+002	 4.61031e-001
3088	 2.6793750000e+002	 3.17471e-001
3089	 2.6800000000e+002	 3.58902e-001
3090	 2.6806250000e+002	 3.41327e-001
3091	 2.6812500000e+002	 4.13336e-001
3092	 2.6818750000e+002	 7.28633e-001
3093	 2.6825000000e+002	 6.11410e-001
3094	 2.6831250000e+002	 3.60539e-001
3095	 2.6837500000e+002	 8.04818e-001
3096	 2.6843750000e+002	 8.20455e-001
3097	 2.6850000000e+002	 5.14711e-001
3098	 2.6856250000e+002	 3.89286e-001
3099	 2.6862500000e+002	 6.66862e-001
3100	 2.6868750000e+002	 7.99293e-001
3101	 2.6875000000e+002	 5.55992e-001
3102	 2.6881250000e+002	 4.08705e-001
3103	 2.6887500000e+002	 3.47081e-001
3104	 2.6893750000e+002	 5.10648e-001
3105	 2.6900000000e+002	 5.54980e-001
3106	 2.6906250000e+002	 3.51858e-001
3107	 2.6912500000e+002	 4.11015e-001
3108	 2.6918750000e+002	 5.87355e-001
3109	 2.6925000000e+002	 4.19212e-001
3110	 2.6931250000e+002	 3.63192e-001
3111	 2.6937500000e+002	 2.70281e-001
3112	 2.6943750000e+002	 1.91703e-001
3113	 2.6950000000e+002	 2.72054e-001
3114	 2.6956250000e+002	 2.15386e-001
3115	 2.6962500000e+002	 1.94644e-001
3116	 2.6968750000e+002	 2.24546e-001
3117	 2.6975000000e+002	 1.76909e-001
3118	 2.6981250000e+002	 1.64338e-001
3119	 2.6987500000e+002	 2.40318e-001
3120	 2.6993750000e+002	 2.79340e-001
3121	 2.7000000000e+002	 3.37823e-001
3122	 2.7006250000e+002	 3.15980e-001
3123	 2.7012500000e+002	 3.53718e-001
3124	 2.7018750000e+002	 2.49412e-001
3125	 2.7025000000e+002	 1.57093e-001
3126	 2.7031250000e+002	 1.06548e-001
3127	 2.7037500000e+002	 1.60714e-001
3128	 2.7043750000e+002	 1.34151e-001
3129	 2.7050000000e+002	 1.56421e-001
3130	 2.7056250000e+002	 1.00814e-001
3131	 2.7062500000e+002	 8.06468e-002
3132	 2.7068750000e+002	 1.14288e-001
3133	 2.7075000000e+002	 8.30778e-002
3134	 2.7081250000e+002	 1.09326e-001
3135	 2.7087500000e+002	 1.25693e-001
3136	 2.7093750000e+002	 2.06646e-001
3137	 2.7100000000e+002	 2.70448e-001
3138	 2.7106250000e+002	 2.19653e-001
3139	 2.7112500000e+002	 3.35015e-001
3140	 2.7118750000e+002	 2.95525e-001
3141	 2.7125000000e+002	 1.75834e-001
3142	 2.7131250000e+002	 1.28733e-001
3143	 2.7137500000e+002	 1.77505e-001
3144	 2.7143750000e+002	 1.38413e-001
3145	 2.7150000000e+002	 1.12388e-001
3146	 2.7156250000e+002	 1.17328e-001
3147	 2.7162500000e+002	 1.66096e-001
3148	 2.7168750000e+002	 1.22377e-001
3149	 2.7175000000e+002	 1.01274e-001
3150	 2.7181250000e+002	 1.19173e-001
3151	 2.7187500000e+002	 1.63262e-001
3152	 2.7193750000e+002	 1.26882e-001
3153	 2.7200000000e+002	 1.03374e-001
3154	 2.7206250000e+002	 9.14781e-002
3155	 2.7212500000e+002	 5.31210e-002
3156	 2.7218750000e+002	 7.18754e-002
3157	 2.7225000000e+002	 7.25947e-002
3158	 2.7231250000e+002	 1.08230e-001
3159	 2.7237500000e+002	 1.72230e-001
3160	 2.7243750000e+002	 1.31919e-001
3161	 2.7250000000e+002	 9.22336e-002
3162	 2.7256250000e+002	 6.89597e-002
3163	 2.7262500000e+002	 6.40160e-002
3164	 2.7268750000e+002	 9.93086e-002
3165	 2.7275000000e+002	 7.01674e-002
3166	 2.7281250000e+002	 1.02313e-001
3167	 2.7287500000e+002	 1.23123e-001
3168	 2.7293750000e+002	 1.48647e-001
3169	 2.7300000000e+002	 1.71990e-001
3170	 2.7306250000e+002	 1.12615e-001
3171	 2.7312500000e+002	 6.27156e-002
3172	 2.7318750000e+002	 6.29457e-002
3173	 2.7325000000e+002	 7.04230e-002
3174	 2.7331250000e+002	 8.61717e-002
3175	 2.7337500000e+002	 6.08344e-002
3176	 2.7343750000e+002	 7.75081e-002
3177	 2.7350000000e+002	 9.55090e-002
3178	 2.7356250000e+002	 1.64992e-001
3179	 2.7362500000e+002	 1.97146e-001
3180	 2.7368750000e+002	 8.02099e-002
3181	 2.7375000000e+002	 9.66812e-002
3182	 2.7381250000e+002	 1.34625e-001
3183	 2.7387500000e+002	 9.04874e-002
3184	 2.7393750000e+002	 5.05319e-002
3185	 2.7400000000e+002	 3.06768e-002
3186	 2.7406250000e+002	 5.78772e-002
3187	 2.7412500000e+002	 4.61203e-002
3188	 2.7418750000e+002	 4.89495e-002
3189	 2.7425000000e+002	 5.75693e-002
3190	 2.7431250000e+002	 3.45890e-002
3191	 2.7437500000e+002	 7.17089e-002
3192	 2.7443750000e+002	 1.87746e-001
3193	 2.7450000000e+002	 1.71921e-001
3194	 2.7456250000e+002	 8.54180e-002
3195	 2.7462500000e+002	 7.49567e-002
3196	 2.7468750000e+002	 7.37136e-002
3197	 2.7475000000e+002	 7.05565e-002
3198	 2.7481250000e+002	 4.66390e-002
3199	 2.7487500000e+002	 4.01802e-002
3200	 2.7493750000e+002	 4.34981e-002
3201	 2.7500000000e+002	 5.41936e-002
TagsBegin:	 	 
OverLoad:	 	False
AverageNumber: []	 	 7.10000e+001
OverLoadRatio: []	 	 1.19209e-007
TagsEnd:	 	 
TagScalesBegin:	 	 
TagScalesEnd:	 	 
