Header Size:	 78	 
Pulse Version:	 42	 
Decimal Symbol:	.	 
Date Format:	dd-MM-yyyy	 
Time Format:	HH:mm:ss:mmm	 
Data Type:	Real	 
Slice:	False	 
Z-Axis type:	Linear	 
Z-Axis size:	1	 
Z-Axis unit:	 	 
Z-Axis first value:	 0.0000000000e+000	 
Z-Axis delta:	 1.0000000000e+000	 
X-Axis type:	Linear	 
X-Axis size:	3201	 
X-Axis unit:	Hz	 
X-Axis first value:	 7.5000000000e+001	 
X-Axis delta:	 6.2500000000e-002	 
	 	 
AmplitudeUnit:	Pa	 
Analyzer:	FFT_Spectrum_Averaging	 
AnalyzerName:	FFT Analyzer	 
	 	 
	 	 
Bipolar:	False	 
CenterFrequency:	 1.7500000000e+002	 
	 	 
	 	 
	 	 
	 	 
dBReference:	 4.0000000000e-010	 
	 	 
	 	 
	 	 
Domain:	1	 
Function:	Autospectrum	 
	 	 
InputRange:	 2.2376582278e+002	 
	 	 
	 	 
MultiBufferName:	Input	 
NBW:	 1.5000000000e+000	 
	 	 
OverlapFailed:	False	 
Overrun:	False	 
Power:	True	 
PowerUnit:	Pa²	 
	 	 
RecordLength:	 1.6000000000e+001	 
ReducedSize:	True	 
	 	 
	 	 
	 	 
	 	 
	 	 
SamplingRatio:	 1.2800000000e+000	 
Signal:	p_B_source	 
	 	 
SignalUnit:	Pa	 
	 	 
	 	 
	 	 
Title:	Autospectrum(p_B_source) - Input	 
Title1:	Working : Input : Input : FFT Analyzer	 
	 	 
	 	 
Weight:	0	 
ZoomOn:	True	 
	 	 
TemplateName:	Working	 
MeasurementName:	Input	 
MeasurementSlice:	False	 
	 	 
DeltaFrequency:	 6.2500000000e-002	 
	 	 
EnvelopeOn:	False	 
	 	 
	 	 
	 	 
Z-index:	 	1
Date:	 	05-03-2025
Time:	 	12:13:03:985
Relative time:	 	 0.00000e+000
Z-axis:	 	 0.0000000000e+000
1	 7.5000000000e+001	 8.14506e-004
2	 7.5062500000e+001	 7.23594e-004
3	 7.5125000000e+001	 8.09598e-004
4	 7.5187500000e+001	 1.00294e-003
5	 7.5250000000e+001	 1.07709e-003
6	 7.5312500000e+001	 1.36577e-003
7	 7.5375000000e+001	 1.39090e-003
8	 7.5437500000e+001	 1.13090e-003
9	 7.5500000000e+001	 1.02657e-003
10	 7.5562500000e+001	 1.25264e-003
11	 7.5625000000e+001	 1.39206e-003
12	 7.5687500000e+001	 1.06323e-003
13	 7.5750000000e+001	 1.94147e-003
14	 7.5812500000e+001	 1.97453e-003
15	 7.5875000000e+001	 8.47951e-004
16	 7.5937500000e+001	 1.96868e-003
17	 7.6000000000e+001	 1.84956e-003
18	 7.6062500000e+001	 1.44848e-003
19	 7.6125000000e+001	 1.41170e-003
20	 7.6187500000e+001	 8.20254e-004
21	 7.6250000000e+001	 1.13394e-003
22	 7.6312500000e+001	 8.59283e-004
23	 7.6375000000e+001	 7.16945e-004
24	 7.6437500000e+001	 1.06712e-003
25	 7.6500000000e+001	 1.22711e-003
26	 7.6562500000e+001	 1.03081e-003
27	 7.6625000000e+001	 1.44674e-003
28	 7.6687500000e+001	 1.20839e-003
29	 7.6750000000e+001	 1.01153e-003
30	 7.6812500000e+001	 1.18273e-003
31	 7.6875000000e+001	 1.16806e-003
32	 7.6937500000e+001	 1.00837e-003
33	 7.7000000000e+001	 5.29292e-004
34	 7.7062500000e+001	 6.62540e-004
35	 7.7125000000e+001	 7.94492e-004
36	 7.7187500000e+001	 9.31367e-004
37	 7.7250000000e+001	 9.98516e-004
38	 7.7312500000e+001	 1.12969e-003
39	 7.7375000000e+001	 8.45927e-004
40	 7.7437500000e+001	 9.35667e-004
41	 7.7500000000e+001	 5.05832e-004
42	 7.7562500000e+001	 2.82343e-004
43	 7.7625000000e+001	 6.81149e-004
44	 7.7687500000e+001	 1.54488e-003
45	 7.7750000000e+001	 1.32689e-003
46	 7.7812500000e+001	 1.92581e-003
47	 7.7875000000e+001	 1.55252e-003
48	 7.7937500000e+001	 1.16365e-003
49	 7.8000000000e+001	 3.10363e-004
50	 7.8062500000e+001	 4.69886e-004
51	 7.8125000000e+001	 1.09167e-003
52	 7.8187500000e+001	 1.33904e-003
53	 7.8250000000e+001	 1.63289e-003
54	 7.8312500000e+001	 1.16697e-003
55	 7.8375000000e+001	 9.69180e-004
56	 7.8437500000e+001	 1.05596e-003
57	 7.8500000000e+001	 8.94682e-004
58	 7.8562500000e+001	 5.70889e-004
59	 7.8625000000e+001	 9.08880e-004
60	 7.8687500000e+001	 1.08624e-003
61	 7.8750000000e+001	 1.55346e-003
62	 7.8812500000e+001	 9.72676e-004
63	 7.8875000000e+001	 8.94217e-004
64	 7.8937500000e+001	 1.10045e-003
65	 7.9000000000e+001	 1.10221e-003
66	 7.9062500000e+001	 1.78979e-003
67	 7.9125000000e+001	 1.06129e-003
68	 7.9187500000e+001	 7.03174e-004
69	 7.9250000000e+001	 1.42700e-003
70	 7.9312500000e+001	 1.29464e-003
71	 7.9375000000e+001	 1.54267e-003
72	 7.9437500000e+001	 8.08790e-004
73	 7.9500000000e+001	 9.94674e-004
74	 7.9562500000e+001	 8.96207e-004
75	 7.9625000000e+001	 1.06890e-003
76	 7.9687500000e+001	 2.17070e-003
77	 7.9750000000e+001	 1.35051e-003
78	 7.9812500000e+001	 7.15010e-004
79	 7.9875000000e+001	 9.21057e-004
80	 7.9937500000e+001	 9.43366e-004
81	 8.0000000000e+001	 1.40374e-003
82	 8.0062500000e+001	 9.59703e-004
83	 8.0125000000e+001	 1.05551e-003
84	 8.0187500000e+001	 1.14152e-003
85	 8.0250000000e+001	 1.35874e-003
86	 8.0312500000e+001	 9.19628e-004
87	 8.0375000000e+001	 6.81740e-004
88	 8.0437500000e+001	 5.94381e-004
89	 8.0500000000e+001	 1.22948e-003
90	 8.0562500000e+001	 1.21565e-003
91	 8.0625000000e+001	 1.17975e-003
92	 8.0687500000e+001	 1.05171e-003
93	 8.0750000000e+001	 1.12947e-003
94	 8.0812500000e+001	 8.73452e-004
95	 8.0875000000e+001	 1.30296e-003
96	 8.0937500000e+001	 1.15749e-003
97	 8.1000000000e+001	 6.11786e-004
98	 8.1062500000e+001	 6.65309e-004
99	 8.1125000000e+001	 7.02014e-004
100	 8.1187500000e+001	 5.92534e-004
101	 8.1250000000e+001	 7.83647e-004
102	 8.1312500000e+001	 8.07626e-004
103	 8.1375000000e+001	 1.03756e-003
104	 8.1437500000e+001	 7.74412e-004
105	 8.1500000000e+001	 7.32408e-004
106	 8.1562500000e+001	 9.88912e-004
107	 8.1625000000e+001	 9.09528e-004
108	 8.1687500000e+001	 1.04610e-003
109	 8.1750000000e+001	 1.26311e-003
110	 8.1812500000e+001	 1.51494e-003
111	 8.1875000000e+001	 1.29911e-003
112	 8.1937500000e+001	 9.87941e-004
113	 8.2000000000e+001	 1.01107e-003
114	 8.2062500000e+001	 8.38686e-004
115	 8.2125000000e+001	 1.19468e-003
116	 8.2187500000e+001	 2.12233e-003
117	 8.2250000000e+001	 2.26844e-003
118	 8.2312500000e+001	 2.12667e-003
119	 8.2375000000e+001	 2.28860e-003
120	 8.2437500000e+001	 1.41535e-003
121	 8.2500000000e+001	 9.35837e-004
122	 8.2562500000e+001	 9.68863e-004
123	 8.2625000000e+001	 1.28642e-003
124	 8.2687500000e+001	 1.38523e-003
125	 8.2750000000e+001	 1.13252e-003
126	 8.2812500000e+001	 1.32002e-003
127	 8.2875000000e+001	 1.75015e-003
128	 8.2937500000e+001	 7.23688e-004
129	 8.3000000000e+001	 1.01180e-003
130	 8.3062500000e+001	 1.48658e-003
131	 8.3125000000e+001	 9.39837e-004
132	 8.3187500000e+001	 7.57417e-004
133	 8.3250000000e+001	 8.89901e-004
134	 8.3312500000e+001	 7.99608e-004
135	 8.3375000000e+001	 1.60494e-003
136	 8.3437500000e+001	 1.63346e-003
137	 8.3500000000e+001	 7.98682e-004
138	 8.3562500000e+001	 8.50692e-004
139	 8.3625000000e+001	 1.00054e-003
140	 8.3687500000e+001	 1.15464e-003
141	 8.3750000000e+001	 9.69275e-004
142	 8.3812500000e+001	 8.10078e-004
143	 8.3875000000e+001	 1.00432e-003
144	 8.3937500000e+001	 1.07358e-003
145	 8.4000000000e+001	 1.04326e-003
146	 8.4062500000e+001	 5.25749e-004
147	 8.4125000000e+001	 7.20781e-004
148	 8.4187500000e+001	 1.14645e-003
149	 8.4250000000e+001	 1.30693e-003
150	 8.4312500000e+001	 1.25435e-003
151	 8.4375000000e+001	 7.30756e-004
152	 8.4437500000e+001	 7.94192e-004
153	 8.4500000000e+001	 9.40239e-004
154	 8.4562500000e+001	 1.74255e-003
155	 8.4625000000e+001	 9.72685e-004
156	 8.4687500000e+001	 1.44714e-003
157	 8.4750000000e+001	 2.16210e-003
158	 8.4812500000e+001	 1.49702e-003
159	 8.4875000000e+001	 1.06308e-003
160	 8.4937500000e+001	 8.15954e-004
161	 8.5000000000e+001	 8.13558e-004
162	 8.5062500000e+001	 1.05449e-003
163	 8.5125000000e+001	 1.31226e-003
164	 8.5187500000e+001	 1.28281e-003
165	 8.5250000000e+001	 5.68446e-004
166	 8.5312500000e+001	 5.91188e-004
167	 8.5375000000e+001	 1.04106e-003
168	 8.5437500000e+001	 1.29272e-003
169	 8.5500000000e+001	 5.99836e-004
170	 8.5562500000e+001	 4.10444e-004
171	 8.5625000000e+001	 8.12661e-004
172	 8.5687500000e+001	 6.74804e-004
173	 8.5750000000e+001	 1.37950e-003
174	 8.5812500000e+001	 1.08901e-003
175	 8.5875000000e+001	 3.36791e-004
176	 8.5937500000e+001	 5.26198e-004
177	 8.6000000000e+001	 1.19808e-003
178	 8.6062500000e+001	 1.35742e-003
179	 8.6125000000e+001	 8.08340e-004
180	 8.6187500000e+001	 2.01420e-003
181	 8.6250000000e+001	 2.26687e-003
182	 8.6312500000e+001	 1.46963e-003
183	 8.6375000000e+001	 1.17232e-003
184	 8.6437500000e+001	 6.00850e-004
185	 8.6500000000e+001	 8.73945e-004
186	 8.6562500000e+001	 1.69023e-003
187	 8.6625000000e+001	 1.59983e-003
188	 8.6687500000e+001	 1.31268e-003
189	 8.6750000000e+001	 6.79005e-004
190	 8.6812500000e+001	 9.36281e-004
191	 8.6875000000e+001	 1.37890e-003
192	 8.6937500000e+001	 1.04088e-003
193	 8.7000000000e+001	 7.36656e-004
194	 8.7062500000e+001	 1.42316e-003
195	 8.7125000000e+001	 1.01180e-003
196	 8.7187500000e+001	 1.74272e-003
197	 8.7250000000e+001	 1.36689e-003
198	 8.7312500000e+001	 1.23070e-003
199	 8.7375000000e+001	 1.16146e-003
200	 8.7437500000e+001	 1.10027e-003
201	 8.7500000000e+001	 9.15007e-004
202	 8.7562500000e+001	 1.75487e-003
203	 8.7625000000e+001	 2.17523e-003
204	 8.7687500000e+001	 1.27340e-003
205	 8.7750000000e+001	 1.26017e-003
206	 8.7812500000e+001	 1.31849e-003
207	 8.7875000000e+001	 2.04502e-003
208	 8.7937500000e+001	 2.55062e-003
209	 8.8000000000e+001	 1.86573e-003
210	 8.8062500000e+001	 7.73994e-004
211	 8.8125000000e+001	 1.20883e-003
212	 8.8187500000e+001	 1.36710e-003
213	 8.8250000000e+001	 1.38670e-003
214	 8.8312500000e+001	 1.89853e-003
215	 8.8375000000e+001	 1.60695e-003
216	 8.8437500000e+001	 1.76809e-003
217	 8.8500000000e+001	 2.37727e-003
218	 8.8562500000e+001	 2.21718e-003
219	 8.8625000000e+001	 1.76054e-003
220	 8.8687500000e+001	 1.63626e-003
221	 8.8750000000e+001	 1.90447e-003
222	 8.8812500000e+001	 1.65870e-003
223	 8.8875000000e+001	 2.60322e-003
224	 8.8937500000e+001	 2.14244e-003
225	 8.9000000000e+001	 1.42226e-003
226	 8.9062500000e+001	 1.57320e-003
227	 8.9125000000e+001	 1.91665e-003
228	 8.9187500000e+001	 2.09089e-003
229	 8.9250000000e+001	 1.22706e-003
230	 8.9312500000e+001	 1.74910e-003
231	 8.9375000000e+001	 1.54310e-003
232	 8.9437500000e+001	 9.77769e-004
233	 8.9500000000e+001	 2.11290e-003
234	 8.9562500000e+001	 2.52193e-003
235	 8.9625000000e+001	 1.61352e-003
236	 8.9687500000e+001	 1.63774e-003
237	 8.9750000000e+001	 2.30452e-003
238	 8.9812500000e+001	 1.78292e-003
239	 8.9875000000e+001	 1.69757e-003
240	 8.9937500000e+001	 3.35650e-003
241	 9.0000000000e+001	 2.12612e-003
242	 9.0062500000e+001	 1.40267e-003
243	 9.0125000000e+001	 1.13658e-003
244	 9.0187500000e+001	 1.40989e-003
245	 9.0250000000e+001	 1.32695e-003
246	 9.0312500000e+001	 9.22646e-004
247	 9.0375000000e+001	 1.30716e-003
248	 9.0437500000e+001	 2.17221e-003
249	 9.0500000000e+001	 2.39357e-003
250	 9.0562500000e+001	 2.70432e-003
251	 9.0625000000e+001	 2.80522e-003
252	 9.0687500000e+001	 3.24612e-003
253	 9.0750000000e+001	 2.40961e-003
254	 9.0812500000e+001	 2.36669e-003
255	 9.0875000000e+001	 1.36007e-003
256	 9.0937500000e+001	 1.99136e-003
257	 9.1000000000e+001	 2.60692e-003
258	 9.1062500000e+001	 1.27424e-003
259	 9.1125000000e+001	 6.39182e-004
260	 9.1187500000e+001	 1.78199e-003
261	 9.1250000000e+001	 1.97174e-003
262	 9.1312500000e+001	 1.25992e-003
263	 9.1375000000e+001	 2.17781e-003
264	 9.1437500000e+001	 1.96654e-003
265	 9.1500000000e+001	 1.12414e-003
266	 9.1562500000e+001	 1.41362e-003
267	 9.1625000000e+001	 2.17080e-003
268	 9.1687500000e+001	 2.50537e-003
269	 9.1750000000e+001	 3.38355e-003
270	 9.1812500000e+001	 2.33743e-003
271	 9.1875000000e+001	 1.93852e-003
272	 9.1937500000e+001	 2.19139e-003
273	 9.2000000000e+001	 1.56318e-003
274	 9.2062500000e+001	 7.77582e-004
275	 9.2125000000e+001	 1.48405e-003
276	 9.2187500000e+001	 1.69290e-003
277	 9.2250000000e+001	 1.97051e-003
278	 9.2312500000e+001	 2.71844e-003
279	 9.2375000000e+001	 2.94127e-003
280	 9.2437500000e+001	 1.68373e-003
281	 9.2500000000e+001	 1.54873e-003
282	 9.2562500000e+001	 1.70268e-003
283	 9.2625000000e+001	 1.49483e-003
284	 9.2687500000e+001	 1.62362e-003
285	 9.2750000000e+001	 1.90944e-003
286	 9.2812500000e+001	 2.28417e-003
287	 9.2875000000e+001	 4.16153e-003
288	 9.2937500000e+001	 4.86847e-003
289	 9.3000000000e+001	 2.07464e-003
290	 9.3062500000e+001	 5.10455e-003
291	 9.3125000000e+001	 6.52469e-003
292	 9.3187500000e+001	 3.16298e-003
293	 9.3250000000e+001	 2.02039e-003
294	 9.3312500000e+001	 2.85356e-003
295	 9.3375000000e+001	 4.79331e-003
296	 9.3437500000e+001	 2.53489e-003
297	 9.3500000000e+001	 9.67498e-004
298	 9.3562500000e+001	 1.69742e-003
299	 9.3625000000e+001	 3.20773e-003
300	 9.3687500000e+001	 3.19759e-003
301	 9.3750000000e+001	 3.07770e-003
302	 9.3812500000e+001	 3.11651e-003
303	 9.3875000000e+001	 2.07618e-003
304	 9.3937500000e+001	 1.88355e-003
305	 9.4000000000e+001	 1.38320e-003
306	 9.4062500000e+001	 9.93466e-004
307	 9.4125000000e+001	 1.37008e-003
308	 9.4187500000e+001	 1.55310e-003
309	 9.4250000000e+001	 1.84298e-003
310	 9.4312500000e+001	 1.90397e-003
311	 9.4375000000e+001	 4.04988e-003
312	 9.4437500000e+001	 3.90672e-003
313	 9.4500000000e+001	 2.62446e-003
314	 9.4562500000e+001	 3.40391e-003
315	 9.4625000000e+001	 2.88946e-003
316	 9.4687500000e+001	 1.74228e-003
317	 9.4750000000e+001	 1.92016e-003
318	 9.4812500000e+001	 2.80414e-003
319	 9.4875000000e+001	 3.59053e-003
320	 9.4937500000e+001	 2.37978e-003
321	 9.5000000000e+001	 1.91574e-003
322	 9.5062500000e+001	 3.40982e-003
323	 9.5125000000e+001	 5.02988e-003
324	 9.5187500000e+001	 3.26905e-003
325	 9.5250000000e+001	 4.13757e-003
326	 9.5312500000e+001	 3.42217e-003
327	 9.5375000000e+001	 3.13946e-003
328	 9.5437500000e+001	 4.72867e-003
329	 9.5500000000e+001	 5.94014e-003
330	 9.5562500000e+001	 3.67534e-003
331	 9.5625000000e+001	 2.75965e-003
332	 9.5687500000e+001	 3.78485e-003
333	 9.5750000000e+001	 3.77926e-003
334	 9.5812500000e+001	 2.38323e-003
335	 9.5875000000e+001	 2.40247e-003
336	 9.5937500000e+001	 3.30053e-003
337	 9.6000000000e+001	 3.65625e-003
338	 9.6062500000e+001	 4.10196e-003
339	 9.6125000000e+001	 2.98542e-003
340	 9.6187500000e+001	 5.54310e-003
341	 9.6250000000e+001	 5.51322e-003
342	 9.6312500000e+001	 3.16897e-003
343	 9.6375000000e+001	 4.92140e-003
344	 9.6437500000e+001	 6.31068e-003
345	 9.6500000000e+001	 4.53415e-003
346	 9.6562500000e+001	 4.45062e-003
347	 9.6625000000e+001	 4.84649e-003
348	 9.6687500000e+001	 4.54324e-003
349	 9.6750000000e+001	 4.26806e-003
350	 9.6812500000e+001	 7.77664e-003
351	 9.6875000000e+001	 6.96885e-003
352	 9.6937500000e+001	 4.95950e-003
353	 9.7000000000e+001	 4.06328e-003
354	 9.7062500000e+001	 7.44037e-003
355	 9.7125000000e+001	 7.29325e-003
356	 9.7187500000e+001	 8.56733e-003
357	 9.7250000000e+001	 6.81065e-003
358	 9.7312500000e+001	 4.71655e-003
359	 9.7375000000e+001	 5.28091e-003
360	 9.7437500000e+001	 4.44996e-003
361	 9.7500000000e+001	 6.79598e-003
362	 9.7562500000e+001	 6.35157e-003
363	 9.7625000000e+001	 3.40543e-003
364	 9.7687500000e+001	 3.04913e-003
365	 9.7750000000e+001	 5.87260e-003
366	 9.7812500000e+001	 8.33215e-003
367	 9.7875000000e+001	 7.62982e-003
368	 9.7937500000e+001	 5.74444e-003
369	 9.8000000000e+001	 5.91728e-003
370	 9.8062500000e+001	 3.78685e-003
371	 9.8125000000e+001	 3.46225e-003
372	 9.8187500000e+001	 5.06784e-003
373	 9.8250000000e+001	 2.08536e-003
374	 9.8312500000e+001	 4.56402e-003
375	 9.8375000000e+001	 7.54109e-003
376	 9.8437500000e+001	 5.08625e-003
377	 9.8500000000e+001	 5.38611e-003
378	 9.8562500000e+001	 7.22987e-003
379	 9.8625000000e+001	 5.86505e-003
380	 9.8687500000e+001	 4.84926e-003
381	 9.8750000000e+001	 4.72771e-003
382	 9.8812500000e+001	 5.70183e-003
383	 9.8875000000e+001	 9.31668e-003
384	 9.8937500000e+001	 9.86288e-003
385	 9.9000000000e+001	 6.92607e-003
386	 9.9062500000e+001	 4.62594e-003
387	 9.9125000000e+001	 6.16890e-003
388	 9.9187500000e+001	 4.73504e-003
389	 9.9250000000e+001	 8.40183e-003
390	 9.9312500000e+001	 8.69874e-003
391	 9.9375000000e+001	 6.10595e-003
392	 9.9437500000e+001	 4.28415e-003
393	 9.9500000000e+001	 5.85071e-003
394	 9.9562500000e+001	 4.39573e-003
395	 9.9625000000e+001	 3.78140e-003
396	 9.9687500000e+001	 6.27715e-003
397	 9.9750000000e+001	 8.47278e-003
398	 9.9812500000e+001	 5.13419e-003
399	 9.9875000000e+001	 4.89654e-003
400	 9.9937500000e+001	 5.59713e-003
401	 1.0000000000e+002	 6.93916e-003
402	 1.0006250000e+002	 6.38659e-003
403	 1.0012500000e+002	 6.25661e-003
404	 1.0018750000e+002	 5.13685e-003
405	 1.0025000000e+002	 8.60675e-003
406	 1.0031250000e+002	 7.72582e-003
407	 1.0037500000e+002	 9.46840e-003
408	 1.0043750000e+002	 1.51220e-002
409	 1.0050000000e+002	 8.40520e-003
410	 1.0056250000e+002	 6.74963e-003
411	 1.0062500000e+002	 1.10939e-002
412	 1.0068750000e+002	 1.59421e-002
413	 1.0075000000e+002	 1.20898e-002
414	 1.0081250000e+002	 1.41549e-002
415	 1.0087500000e+002	 9.61862e-003
416	 1.0093750000e+002	 8.83748e-003
417	 1.0100000000e+002	 8.68740e-003
418	 1.0106250000e+002	 1.16087e-002
419	 1.0112500000e+002	 1.26784e-002
420	 1.0118750000e+002	 9.46592e-003
421	 1.0125000000e+002	 9.89215e-003
422	 1.0131250000e+002	 9.15992e-003
423	 1.0137500000e+002	 4.29041e-003
424	 1.0143750000e+002	 8.67816e-003
425	 1.0150000000e+002	 5.96925e-003
426	 1.0156250000e+002	 3.99889e-003
427	 1.0162500000e+002	 1.15384e-002
428	 1.0168750000e+002	 1.34415e-002
429	 1.0175000000e+002	 1.47778e-002
430	 1.0181250000e+002	 1.60115e-002
431	 1.0187500000e+002	 1.25692e-002
432	 1.0193750000e+002	 9.69208e-003
433	 1.0200000000e+002	 1.46975e-002
434	 1.0206250000e+002	 1.31457e-002
435	 1.0212500000e+002	 5.32771e-003
436	 1.0218750000e+002	 6.82636e-003
437	 1.0225000000e+002	 9.90413e-003
438	 1.0231250000e+002	 8.43072e-003
439	 1.0237500000e+002	 1.08395e-002
440	 1.0243750000e+002	 1.05837e-002
441	 1.0250000000e+002	 1.95862e-002
442	 1.0256250000e+002	 2.61117e-002
443	 1.0262500000e+002	 1.87873e-002
444	 1.0268750000e+002	 2.36109e-002
445	 1.0275000000e+002	 2.82469e-002
446	 1.0281250000e+002	 2.46843e-002
447	 1.0287500000e+002	 2.43326e-002
448	 1.0293750000e+002	 1.70419e-002
449	 1.0300000000e+002	 1.80016e-002
450	 1.0306250000e+002	 1.37037e-002
451	 1.0312500000e+002	 1.98643e-002
452	 1.0318750000e+002	 3.92251e-002
453	 1.0325000000e+002	 1.78673e-002
454	 1.0331250000e+002	 1.32496e-002
455	 1.0337500000e+002	 1.70070e-002
456	 1.0343750000e+002	 2.02633e-002
457	 1.0350000000e+002	 2.59322e-002
458	 1.0356250000e+002	 3.43396e-002
459	 1.0362500000e+002	 1.97625e-002
460	 1.0368750000e+002	 2.04844e-002
461	 1.0375000000e+002	 2.17867e-002
462	 1.0381250000e+002	 1.62868e-002
463	 1.0387500000e+002	 2.48343e-002
464	 1.0393750000e+002	 2.20051e-002
465	 1.0400000000e+002	 2.13898e-002
466	 1.0406250000e+002	 2.13416e-002
467	 1.0412500000e+002	 1.80339e-002
468	 1.0418750000e+002	 3.48364e-002
469	 1.0425000000e+002	 4.49538e-002
470	 1.0431250000e+002	 3.45593e-002
471	 1.0437500000e+002	 2.51704e-002
472	 1.0443750000e+002	 1.61077e-002
473	 1.0450000000e+002	 1.80199e-002
474	 1.0456250000e+002	 2.00710e-002
475	 1.0462500000e+002	 1.97830e-002
476	 1.0468750000e+002	 3.58860e-002
477	 1.0475000000e+002	 3.81316e-002
478	 1.0481250000e+002	 2.76425e-002
479	 1.0487500000e+002	 4.19785e-002
480	 1.0493750000e+002	 4.73236e-002
481	 1.0500000000e+002	 4.52504e-002
482	 1.0506250000e+002	 3.00101e-002
483	 1.0512500000e+002	 3.41676e-002
484	 1.0518750000e+002	 2.99270e-002
485	 1.0525000000e+002	 3.47910e-002
486	 1.0531250000e+002	 3.53305e-002
487	 1.0537500000e+002	 3.66690e-002
488	 1.0543750000e+002	 6.62936e-002
489	 1.0550000000e+002	 5.72057e-002
490	 1.0556250000e+002	 2.78661e-002
491	 1.0562500000e+002	 3.21699e-002
492	 1.0568750000e+002	 4.68521e-002
493	 1.0575000000e+002	 4.87463e-002
494	 1.0581250000e+002	 2.55976e-002
495	 1.0587500000e+002	 1.62293e-002
496	 1.0593750000e+002	 2.92595e-002
497	 1.0600000000e+002	 6.88699e-002
498	 1.0606250000e+002	 8.88236e-002
499	 1.0612500000e+002	 6.66559e-002
500	 1.0618750000e+002	 3.79622e-002
501	 1.0625000000e+002	 2.87530e-002
502	 1.0631250000e+002	 3.52601e-002
503	 1.0637500000e+002	 7.80429e-002
504	 1.0643750000e+002	 8.55304e-002
505	 1.0650000000e+002	 8.07295e-002
506	 1.0656250000e+002	 1.23500e-001
507	 1.0662500000e+002	 1.11329e-001
508	 1.0668750000e+002	 1.01672e-001
509	 1.0675000000e+002	 9.02917e-002
510	 1.0681250000e+002	 7.14884e-002
511	 1.0687500000e+002	 8.20165e-002
512	 1.0693750000e+002	 1.50885e-001
513	 1.0700000000e+002	 1.67049e-001
514	 1.0706250000e+002	 1.63241e-001
515	 1.0712500000e+002	 1.85383e-001
516	 1.0718750000e+002	 1.32112e-001
517	 1.0725000000e+002	 1.24347e-001
518	 1.0731250000e+002	 1.35467e-001
519	 1.0737500000e+002	 1.00316e-001
520	 1.0743750000e+002	 8.93617e-002
521	 1.0750000000e+002	 1.27702e-001
522	 1.0756250000e+002	 2.26187e-001
523	 1.0762500000e+002	 2.48463e-001
524	 1.0768750000e+002	 2.04619e-001
525	 1.0775000000e+002	 1.44356e-001
526	 1.0781250000e+002	 9.41681e-002
527	 1.0787500000e+002	 1.51942e-001
528	 1.0793750000e+002	 2.16079e-001
529	 1.0800000000e+002	 1.53209e-001
530	 1.0806250000e+002	 9.15560e-002
531	 1.0812500000e+002	 1.40847e-001
532	 1.0818750000e+002	 1.09775e-001
533	 1.0825000000e+002	 1.07728e-001
534	 1.0831250000e+002	 1.64633e-001
535	 1.0837500000e+002	 1.12747e-001
536	 1.0843750000e+002	 6.33331e-002
537	 1.0850000000e+002	 4.86479e-002
538	 1.0856250000e+002	 5.54027e-002
539	 1.0862500000e+002	 6.63790e-002
540	 1.0868750000e+002	 5.49986e-002
541	 1.0875000000e+002	 6.75756e-002
542	 1.0881250000e+002	 9.78129e-002
543	 1.0887500000e+002	 1.38182e-001
544	 1.0893750000e+002	 8.03310e-002
545	 1.0900000000e+002	 1.11149e-001
546	 1.0906250000e+002	 9.18485e-002
547	 1.0912500000e+002	 7.97045e-002
548	 1.0918750000e+002	 1.06017e-001
549	 1.0925000000e+002	 9.92090e-002
550	 1.0931250000e+002	 1.12794e-001
551	 1.0937500000e+002	 1.05037e-001
552	 1.0943750000e+002	 6.24054e-002
553	 1.0950000000e+002	 7.44568e-002
554	 1.0956250000e+002	 9.73776e-002
555	 1.0962500000e+002	 1.39329e-001
556	 1.0968750000e+002	 1.04032e-001
557	 1.0975000000e+002	 5.83568e-002
558	 1.0981250000e+002	 8.75356e-002
559	 1.0987500000e+002	 1.06120e-001
560	 1.0993750000e+002	 1.30434e-001
561	 1.1000000000e+002	 8.57949e-002
562	 1.1006250000e+002	 6.18995e-002
563	 1.1012500000e+002	 8.52095e-002
564	 1.1018750000e+002	 1.37323e-001
565	 1.1025000000e+002	 7.47054e-002
566	 1.1031250000e+002	 9.33857e-002
567	 1.1037500000e+002	 1.12545e-001
568	 1.1043750000e+002	 9.10838e-002
569	 1.1050000000e+002	 9.37750e-002
570	 1.1056250000e+002	 6.53171e-002
571	 1.1062500000e+002	 6.88152e-002
572	 1.1068750000e+002	 6.11125e-002
573	 1.1075000000e+002	 9.22567e-002
574	 1.1081250000e+002	 8.00092e-002
575	 1.1087500000e+002	 8.00014e-002
576	 1.1093750000e+002	 8.46336e-002
577	 1.1100000000e+002	 4.25357e-002
578	 1.1106250000e+002	 5.63149e-002
579	 1.1112500000e+002	 6.67541e-002
580	 1.1118750000e+002	 3.49145e-002
581	 1.1125000000e+002	 2.93814e-002
582	 1.1131250000e+002	 5.51983e-002
583	 1.1137500000e+002	 5.65769e-002
584	 1.1143750000e+002	 3.37167e-002
585	 1.1150000000e+002	 3.95273e-002
586	 1.1156250000e+002	 3.86410e-002
587	 1.1162500000e+002	 3.55604e-002
588	 1.1168750000e+002	 3.30351e-002
589	 1.1175000000e+002	 3.51561e-002
590	 1.1181250000e+002	 3.80572e-002
591	 1.1187500000e+002	 4.62066e-002
592	 1.1193750000e+002	 5.23140e-002
593	 1.1200000000e+002	 6.11516e-002
594	 1.1206250000e+002	 5.94252e-002
595	 1.1212500000e+002	 3.57457e-002
596	 1.1218750000e+002	 4.05161e-002
597	 1.1225000000e+002	 3.63632e-002
598	 1.1231250000e+002	 3.17050e-002
599	 1.1237500000e+002	 4.30221e-002
600	 1.1243750000e+002	 7.44839e-002
601	 1.1250000000e+002	 4.60614e-002
602	 1.1256250000e+002	 3.71789e-002
603	 1.1262500000e+002	 7.28457e-002
604	 1.1268750000e+002	 5.84626e-002
605	 1.1275000000e+002	 5.30343e-002
606	 1.1281250000e+002	 4.35408e-002
607	 1.1287500000e+002	 3.34113e-002
608	 1.1293750000e+002	 2.90344e-002
609	 1.1300000000e+002	 1.91333e-002
610	 1.1306250000e+002	 2.37304e-002
611	 1.1312500000e+002	 3.03185e-002
612	 1.1318750000e+002	 3.92032e-002
613	 1.1325000000e+002	 7.07677e-002
614	 1.1331250000e+002	 6.48984e-002
615	 1.1337500000e+002	 5.41125e-002
616	 1.1343750000e+002	 6.71842e-002
617	 1.1350000000e+002	 5.13668e-002
618	 1.1356250000e+002	 3.30742e-002
619	 1.1362500000e+002	 2.46579e-002
620	 1.1368750000e+002	 2.51275e-002
621	 1.1375000000e+002	 3.63277e-002
622	 1.1381250000e+002	 2.66052e-002
623	 1.1387500000e+002	 2.08049e-002
624	 1.1393750000e+002	 2.12804e-002
625	 1.1400000000e+002	 3.14848e-002
626	 1.1406250000e+002	 2.48516e-002
627	 1.1412500000e+002	 2.57542e-002
628	 1.1418750000e+002	 4.55006e-002
629	 1.1425000000e+002	 4.36193e-002
630	 1.1431250000e+002	 2.90497e-002
631	 1.1437500000e+002	 3.83872e-002
632	 1.1443750000e+002	 3.49045e-002
633	 1.1450000000e+002	 1.59769e-002
634	 1.1456250000e+002	 1.86317e-002
635	 1.1462500000e+002	 1.46488e-002
636	 1.1468750000e+002	 1.70152e-002
637	 1.1475000000e+002	 2.09001e-002
638	 1.1481250000e+002	 1.07711e-002
639	 1.1487500000e+002	 1.44985e-002
640	 1.1493750000e+002	 1.44531e-002
641	 1.1500000000e+002	 3.00884e-002
642	 1.1506250000e+002	 2.92867e-002
643	 1.1512500000e+002	 1.55801e-002
644	 1.1518750000e+002	 1.11162e-002
645	 1.1525000000e+002	 1.23524e-002
646	 1.1531250000e+002	 1.13609e-002
647	 1.1537500000e+002	 1.99002e-002
648	 1.1543750000e+002	 1.46970e-002
649	 1.1550000000e+002	 1.86427e-002
650	 1.1556250000e+002	 2.56933e-002
651	 1.1562500000e+002	 2.13758e-002
652	 1.1568750000e+002	 2.23105e-002
653	 1.1575000000e+002	 1.66517e-002
654	 1.1581250000e+002	 1.10465e-002
655	 1.1587500000e+002	 1.47551e-002
656	 1.1593750000e+002	 1.13568e-002
657	 1.1600000000e+002	 1.07272e-002
658	 1.1606250000e+002	 1.60222e-002
659	 1.1612500000e+002	 1.99479e-002
660	 1.1618750000e+002	 1.63689e-002
661	 1.1625000000e+002	 1.93014e-002
662	 1.1631250000e+002	 1.58292e-002
663	 1.1637500000e+002	 1.33973e-002
664	 1.1643750000e+002	 2.22764e-002
665	 1.1650000000e+002	 2.36093e-002
666	 1.1656250000e+002	 1.51722e-002
667	 1.1662500000e+002	 1.41599e-002
668	 1.1668750000e+002	 1.29104e-002
669	 1.1675000000e+002	 8.47809e-003
670	 1.1681250000e+002	 9.94041e-003
671	 1.1687500000e+002	 9.59813e-003
672	 1.1693750000e+002	 9.61296e-003
673	 1.1700000000e+002	 1.55178e-002
674	 1.1706250000e+002	 2.50169e-002
675	 1.1712500000e+002	 1.69948e-002
676	 1.1718750000e+002	 8.99910e-003
677	 1.1725000000e+002	 8.95950e-003
678	 1.1731250000e+002	 1.29110e-002
679	 1.1737500000e+002	 1.36186e-002
680	 1.1743750000e+002	 1.10656e-002
681	 1.1750000000e+002	 1.16341e-002
682	 1.1756250000e+002	 1.19961e-002
683	 1.1762500000e+002	 8.76481e-003
684	 1.1768750000e+002	 1.22679e-002
685	 1.1775000000e+002	 1.01959e-002
686	 1.1781250000e+002	 8.59029e-003
687	 1.1787500000e+002	 1.13873e-002
688	 1.1793750000e+002	 1.10578e-002
689	 1.1800000000e+002	 6.01488e-003
690	 1.1806250000e+002	 5.27819e-003
691	 1.1812500000e+002	 8.12769e-003
692	 1.1818750000e+002	 1.95319e-002
693	 1.1825000000e+002	 1.36029e-002
694	 1.1831250000e+002	 1.19896e-002
695	 1.1837500000e+002	 7.69028e-003
696	 1.1843750000e+002	 8.37760e-003
697	 1.1850000000e+002	 1.14895e-002
698	 1.1856250000e+002	 8.86716e-003
699	 1.1862500000e+002	 9.51895e-003
700	 1.1868750000e+002	 1.45401e-002
701	 1.1875000000e+002	 1.57363e-002
702	 1.1881250000e+002	 9.89745e-003
703	 1.1887500000e+002	 8.13170e-003
704	 1.1893750000e+002	 1.04498e-002
705	 1.1900000000e+002	 8.71291e-003
706	 1.1906250000e+002	 1.06300e-002
707	 1.1912500000e+002	 7.69346e-003
708	 1.1918750000e+002	 8.56207e-003
709	 1.1925000000e+002	 1.01794e-002
710	 1.1931250000e+002	 1.05238e-002
711	 1.1937500000e+002	 1.31161e-002
712	 1.1943750000e+002	 1.07231e-002
713	 1.1950000000e+002	 6.33481e-003
714	 1.1956250000e+002	 6.45628e-003
715	 1.1962500000e+002	 7.71205e-003
716	 1.1968750000e+002	 1.05885e-002
717	 1.1975000000e+002	 1.59795e-002
718	 1.1981250000e+002	 1.10247e-002
719	 1.1987500000e+002	 1.51718e-002
720	 1.1993750000e+002	 1.12146e-002
721	 1.2000000000e+002	 1.33516e-002
722	 1.2006250000e+002	 1.66339e-002
723	 1.2012500000e+002	 9.21685e-003
724	 1.2018750000e+002	 3.50633e-003
725	 1.2025000000e+002	 8.78523e-003
726	 1.2031250000e+002	 1.29853e-002
727	 1.2037500000e+002	 5.46346e-003
728	 1.2043750000e+002	 6.18913e-003
729	 1.2050000000e+002	 1.06276e-002
730	 1.2056250000e+002	 1.44476e-002
731	 1.2062500000e+002	 1.08789e-002
732	 1.2068750000e+002	 5.79054e-003
733	 1.2075000000e+002	 7.00078e-003
734	 1.2081250000e+002	 1.23201e-002
735	 1.2087500000e+002	 6.75460e-003
736	 1.2093750000e+002	 8.22580e-003
737	 1.2100000000e+002	 1.28101e-002
738	 1.2106250000e+002	 9.14794e-003
739	 1.2112500000e+002	 3.77656e-003
740	 1.2118750000e+002	 5.45738e-003
741	 1.2125000000e+002	 9.58440e-003
742	 1.2131250000e+002	 8.48631e-003
743	 1.2137500000e+002	 3.97162e-003
744	 1.2143750000e+002	 1.75944e-003
745	 1.2150000000e+002	 3.15259e-003
746	 1.2156250000e+002	 4.62008e-003
747	 1.2162500000e+002	 6.01660e-003
748	 1.2168750000e+002	 7.69747e-003
749	 1.2175000000e+002	 6.18910e-003
750	 1.2181250000e+002	 1.06572e-002
751	 1.2187500000e+002	 8.01821e-003
752	 1.2193750000e+002	 4.31103e-003
753	 1.2200000000e+002	 5.73350e-003
754	 1.2206250000e+002	 7.77598e-003
755	 1.2212500000e+002	 1.11122e-002
756	 1.2218750000e+002	 7.15134e-003
757	 1.2225000000e+002	 6.05933e-003
758	 1.2231250000e+002	 5.79272e-003
759	 1.2237500000e+002	 3.52759e-003
760	 1.2243750000e+002	 5.10520e-003
761	 1.2250000000e+002	 1.00309e-002
762	 1.2256250000e+002	 8.78760e-003
763	 1.2262500000e+002	 6.89826e-003
764	 1.2268750000e+002	 7.24732e-003
765	 1.2275000000e+002	 6.07915e-003
766	 1.2281250000e+002	 3.90528e-003
767	 1.2287500000e+002	 3.22703e-003
768	 1.2293750000e+002	 3.32444e-003
769	 1.2300000000e+002	 4.39936e-003
770	 1.2306250000e+002	 4.71074e-003
771	 1.2312500000e+002	 7.75535e-003
772	 1.2318750000e+002	 9.53281e-003
773	 1.2325000000e+002	 6.56468e-003
774	 1.2331250000e+002	 3.81712e-003
775	 1.2337500000e+002	 4.52792e-003
776	 1.2343750000e+002	 2.27469e-003
777	 1.2350000000e+002	 2.46220e-003
778	 1.2356250000e+002	 4.84514e-003
779	 1.2362500000e+002	 5.10096e-003
780	 1.2368750000e+002	 6.47254e-003
781	 1.2375000000e+002	 5.41751e-003
782	 1.2381250000e+002	 8.28378e-003
783	 1.2387500000e+002	 7.61346e-003
784	 1.2393750000e+002	 7.78338e-003
785	 1.2400000000e+002	 6.05861e-003
786	 1.2406250000e+002	 4.60119e-003
787	 1.2412500000e+002	 3.71206e-003
788	 1.2418750000e+002	 6.99852e-003
789	 1.2425000000e+002	 6.78687e-003
790	 1.2431250000e+002	 1.08715e-002
791	 1.2437500000e+002	 8.40988e-003
792	 1.2443750000e+002	 5.11949e-003
793	 1.2450000000e+002	 8.04717e-003
794	 1.2456250000e+002	 1.11870e-002
795	 1.2462500000e+002	 9.30857e-003
796	 1.2468750000e+002	 5.99135e-003
797	 1.2475000000e+002	 6.85486e-003
798	 1.2481250000e+002	 6.18895e-003
799	 1.2487500000e+002	 3.61796e-003
800	 1.2493750000e+002	 3.54275e-003
801	 1.2500000000e+002	 4.47682e-003
802	 1.2506250000e+002	 4.22208e-003
803	 1.2512500000e+002	 4.65263e-003
804	 1.2518750000e+002	 8.29949e-003
805	 1.2525000000e+002	 7.54836e-003
806	 1.2531250000e+002	 6.23945e-003
807	 1.2537500000e+002	 5.97024e-003
808	 1.2543750000e+002	 4.48082e-003
809	 1.2550000000e+002	 4.68298e-003
810	 1.2556250000e+002	 8.52367e-003
811	 1.2562500000e+002	 9.15343e-003
812	 1.2568750000e+002	 7.01896e-003
813	 1.2575000000e+002	 5.14563e-003
814	 1.2581250000e+002	 4.11208e-003
815	 1.2587500000e+002	 4.04286e-003
816	 1.2593750000e+002	 7.98567e-003
817	 1.2600000000e+002	 1.11231e-002
818	 1.2606250000e+002	 9.68711e-003
819	 1.2612500000e+002	 5.06655e-003
820	 1.2618750000e+002	 4.55270e-003
821	 1.2625000000e+002	 6.21680e-003
822	 1.2631250000e+002	 4.96406e-003
823	 1.2637500000e+002	 3.06199e-003
824	 1.2643750000e+002	 4.28609e-003
825	 1.2650000000e+002	 5.07204e-003
826	 1.2656250000e+002	 7.74287e-003
827	 1.2662500000e+002	 3.89742e-003
828	 1.2668750000e+002	 2.67112e-003
829	 1.2675000000e+002	 2.29615e-003
830	 1.2681250000e+002	 4.62851e-003
831	 1.2687500000e+002	 6.11707e-003
832	 1.2693750000e+002	 6.69982e-003
833	 1.2700000000e+002	 5.22276e-003
834	 1.2706250000e+002	 7.07422e-003
835	 1.2712500000e+002	 6.70641e-003
836	 1.2718750000e+002	 6.35825e-003
837	 1.2725000000e+002	 9.46032e-003
838	 1.2731250000e+002	 4.31269e-003
839	 1.2737500000e+002	 6.38034e-003
840	 1.2743750000e+002	 6.26738e-003
841	 1.2750000000e+002	 4.72006e-003
842	 1.2756250000e+002	 4.66302e-003
843	 1.2762500000e+002	 4.50678e-003
844	 1.2768750000e+002	 4.19160e-003
845	 1.2775000000e+002	 5.91343e-003
846	 1.2781250000e+002	 4.65525e-003
847	 1.2787500000e+002	 2.13824e-003
848	 1.2793750000e+002	 2.62984e-003
849	 1.2800000000e+002	 6.62906e-003
850	 1.2806250000e+002	 4.91025e-003
851	 1.2812500000e+002	 4.49303e-003
852	 1.2818750000e+002	 5.27149e-003
853	 1.2825000000e+002	 6.28899e-003
854	 1.2831250000e+002	 5.63170e-003
855	 1.2837500000e+002	 2.95629e-003
856	 1.2843750000e+002	 3.20904e-003
857	 1.2850000000e+002	 4.97179e-003
858	 1.2856250000e+002	 6.08397e-003
859	 1.2862500000e+002	 2.84386e-003
860	 1.2868750000e+002	 1.40483e-003
861	 1.2875000000e+002	 3.05522e-003
862	 1.2881250000e+002	 6.74050e-003
863	 1.2887500000e+002	 8.76594e-003
864	 1.2893750000e+002	 7.23443e-003
865	 1.2900000000e+002	 3.86884e-003
866	 1.2906250000e+002	 1.92688e-003
867	 1.2912500000e+002	 3.74762e-003
868	 1.2918750000e+002	 8.42670e-003
869	 1.2925000000e+002	 9.20195e-003
870	 1.2931250000e+002	 4.96204e-003
871	 1.2937500000e+002	 4.44521e-003
872	 1.2943750000e+002	 4.10876e-003
873	 1.2950000000e+002	 4.62890e-003
874	 1.2956250000e+002	 8.20518e-003
875	 1.2962500000e+002	 6.88069e-003
876	 1.2968750000e+002	 3.63263e-003
877	 1.2975000000e+002	 3.58159e-003
878	 1.2981250000e+002	 3.80240e-003
879	 1.2987500000e+002	 3.14143e-003
880	 1.2993750000e+002	 4.33525e-003
881	 1.3000000000e+002	 3.96697e-003
882	 1.3006250000e+002	 5.48862e-003
883	 1.3012500000e+002	 5.15534e-003
884	 1.3018750000e+002	 6.09017e-003
885	 1.3025000000e+002	 4.21668e-003
886	 1.3031250000e+002	 4.35070e-003
887	 1.3037500000e+002	 6.93085e-003
888	 1.3043750000e+002	 5.56446e-003
889	 1.3050000000e+002	 3.40661e-003
890	 1.3056250000e+002	 2.50881e-003
891	 1.3062500000e+002	 3.37475e-003
892	 1.3068750000e+002	 3.02023e-003
893	 1.3075000000e+002	 3.80663e-003
894	 1.3081250000e+002	 3.75036e-003
895	 1.3087500000e+002	 4.93656e-003
896	 1.3093750000e+002	 5.97674e-003
897	 1.3100000000e+002	 5.86517e-003
898	 1.3106250000e+002	 3.98054e-003
899	 1.3112500000e+002	 3.93257e-003
900	 1.3118750000e+002	 2.58361e-003
901	 1.3125000000e+002	 2.72693e-003
902	 1.3131250000e+002	 2.96306e-003
903	 1.3137500000e+002	 3.03538e-003
904	 1.3143750000e+002	 3.60857e-003
905	 1.3150000000e+002	 5.40665e-003
906	 1.3156250000e+002	 5.69751e-003
907	 1.3162500000e+002	 5.71498e-003
908	 1.3168750000e+002	 4.25418e-003
909	 1.3175000000e+002	 2.76306e-003
910	 1.3181250000e+002	 3.49281e-003
911	 1.3187500000e+002	 3.11842e-003
912	 1.3193750000e+002	 2.63776e-003
913	 1.3200000000e+002	 6.36487e-003
914	 1.3206250000e+002	 7.27562e-003
915	 1.3212500000e+002	 7.15739e-003
916	 1.3218750000e+002	 7.97061e-003
917	 1.3225000000e+002	 4.79620e-003
918	 1.3231250000e+002	 4.85387e-003
919	 1.3237500000e+002	 5.51934e-003
920	 1.3243750000e+002	 7.86935e-003
921	 1.3250000000e+002	 8.88960e-003
922	 1.3256250000e+002	 2.57086e-003
923	 1.3262500000e+002	 1.31383e-003
924	 1.3268750000e+002	 2.86192e-003
925	 1.3275000000e+002	 4.29866e-003
926	 1.3281250000e+002	 3.71795e-003
927	 1.3287500000e+002	 4.92083e-003
928	 1.3293750000e+002	 6.63573e-003
929	 1.3300000000e+002	 4.04855e-003
930	 1.3306250000e+002	 3.26072e-003
931	 1.3312500000e+002	 8.33893e-003
932	 1.3318750000e+002	 6.60445e-003
933	 1.3325000000e+002	 6.46629e-003
934	 1.3331250000e+002	 3.88204e-003
935	 1.3337500000e+002	 3.39964e-003
936	 1.3343750000e+002	 4.38698e-003
937	 1.3350000000e+002	 3.57350e-003
938	 1.3356250000e+002	 5.00155e-003
939	 1.3362500000e+002	 4.45687e-003
940	 1.3368750000e+002	 5.22792e-003
941	 1.3375000000e+002	 7.63219e-003
942	 1.3381250000e+002	 8.73167e-003
943	 1.3387500000e+002	 6.03401e-003
944	 1.3393750000e+002	 3.46728e-003
945	 1.3400000000e+002	 2.56335e-003
946	 1.3406250000e+002	 3.59666e-003
947	 1.3412500000e+002	 6.84386e-003
948	 1.3418750000e+002	 4.50689e-003
949	 1.3425000000e+002	 6.55797e-003
950	 1.3431250000e+002	 5.50534e-003
951	 1.3437500000e+002	 8.14191e-003
952	 1.3443750000e+002	 9.95451e-003
953	 1.3450000000e+002	 3.70392e-003
954	 1.3456250000e+002	 2.22745e-003
955	 1.3462500000e+002	 4.60045e-003
956	 1.3468750000e+002	 8.37046e-003
957	 1.3475000000e+002	 5.82025e-003
958	 1.3481250000e+002	 3.19843e-003
959	 1.3487500000e+002	 4.14169e-003
960	 1.3493750000e+002	 4.52677e-003
961	 1.3500000000e+002	 4.47795e-003
962	 1.3506250000e+002	 3.87770e-003
963	 1.3512500000e+002	 5.11487e-003
964	 1.3518750000e+002	 4.81740e-003
965	 1.3525000000e+002	 4.11730e-003
966	 1.3531250000e+002	 4.25369e-003
967	 1.3537500000e+002	 5.94749e-003
968	 1.3543750000e+002	 1.10165e-002
969	 1.3550000000e+002	 5.90247e-003
970	 1.3556250000e+002	 3.96949e-003
971	 1.3562500000e+002	 3.79864e-003
972	 1.3568750000e+002	 5.96217e-003
973	 1.3575000000e+002	 5.34447e-003
974	 1.3581250000e+002	 4.74366e-003
975	 1.3587500000e+002	 4.70610e-003
976	 1.3593750000e+002	 3.16803e-003
977	 1.3600000000e+002	 3.22260e-003
978	 1.3606250000e+002	 3.48994e-003
979	 1.3612500000e+002	 6.18205e-003
980	 1.3618750000e+002	 8.30940e-003
981	 1.3625000000e+002	 7.73112e-003
982	 1.3631250000e+002	 3.86560e-003
983	 1.3637500000e+002	 2.94112e-003
984	 1.3643750000e+002	 5.40020e-003
985	 1.3650000000e+002	 4.89368e-003
986	 1.3656250000e+002	 3.82832e-003
987	 1.3662500000e+002	 3.02960e-003
988	 1.3668750000e+002	 3.56964e-003
989	 1.3675000000e+002	 4.10781e-003
990	 1.3681250000e+002	 3.83200e-003
991	 1.3687500000e+002	 6.47001e-003
992	 1.3693750000e+002	 7.65940e-003
993	 1.3700000000e+002	 9.33569e-003
994	 1.3706250000e+002	 6.97935e-003
995	 1.3712500000e+002	 8.93788e-003
996	 1.3718750000e+002	 5.79385e-003
997	 1.3725000000e+002	 4.15149e-003
998	 1.3731250000e+002	 7.41894e-003
999	 1.3737500000e+002	 9.04017e-003
1000	 1.3743750000e+002	 5.01734e-003
1001	 1.3750000000e+002	 4.15699e-003
1002	 1.3756250000e+002	 5.23846e-003
1003	 1.3762500000e+002	 8.63693e-003
1004	 1.3768750000e+002	 1.06645e-002
1005	 1.3775000000e+002	 7.38471e-003
1006	 1.3781250000e+002	 5.22059e-003
1007	 1.3787500000e+002	 6.82775e-003
1008	 1.3793750000e+002	 4.62477e-003
1009	 1.3800000000e+002	 4.67043e-003
1010	 1.3806250000e+002	 8.30354e-003
1011	 1.3812500000e+002	 1.11899e-002
1012	 1.3818750000e+002	 1.14277e-002
1013	 1.3825000000e+002	 7.98264e-003
1014	 1.3831250000e+002	 3.61471e-003
1015	 1.3837500000e+002	 2.66204e-003
1016	 1.3843750000e+002	 4.72472e-003
1017	 1.3850000000e+002	 9.48577e-003
1018	 1.3856250000e+002	 7.83280e-003
1019	 1.3862500000e+002	 9.76028e-003
1020	 1.3868750000e+002	 1.17539e-002
1021	 1.3875000000e+002	 7.57664e-003
1022	 1.3881250000e+002	 6.83032e-003
1023	 1.3887500000e+002	 8.16522e-003
1024	 1.3893750000e+002	 7.44419e-003
1025	 1.3900000000e+002	 1.12006e-002
1026	 1.3906250000e+002	 1.38626e-002
1027	 1.3912500000e+002	 5.13798e-003
1028	 1.3918750000e+002	 6.43320e-003
1029	 1.3925000000e+002	 1.12429e-002
1030	 1.3931250000e+002	 1.38389e-002
1031	 1.3937500000e+002	 1.08877e-002
1032	 1.3943750000e+002	 8.71062e-003
1033	 1.3950000000e+002	 6.39220e-003
1034	 1.3956250000e+002	 5.39621e-003
1035	 1.3962500000e+002	 4.11990e-003
1036	 1.3968750000e+002	 7.61927e-003
1037	 1.3975000000e+002	 8.20723e-003
1038	 1.3981250000e+002	 4.60839e-003
1039	 1.3987500000e+002	 4.31954e-003
1040	 1.3993750000e+002	 5.58164e-003
1041	 1.4000000000e+002	 8.37782e-003
1042	 1.4006250000e+002	 9.82309e-003
1043	 1.4012500000e+002	 7.35792e-003
1044	 1.4018750000e+002	 5.19663e-003
1045	 1.4025000000e+002	 5.62840e-003
1046	 1.4031250000e+002	 8.94533e-003
1047	 1.4037500000e+002	 1.05075e-002
1048	 1.4043750000e+002	 5.11118e-003
1049	 1.4050000000e+002	 4.31389e-003
1050	 1.4056250000e+002	 5.46626e-003
1051	 1.4062500000e+002	 1.05100e-002
1052	 1.4068750000e+002	 1.01360e-002
1053	 1.4075000000e+002	 1.18971e-002
1054	 1.4081250000e+002	 1.10200e-002
1055	 1.4087500000e+002	 8.31399e-003
1056	 1.4093750000e+002	 7.38939e-003
1057	 1.4100000000e+002	 8.20952e-003
1058	 1.4106250000e+002	 1.11071e-002
1059	 1.4112500000e+002	 6.10849e-003
1060	 1.4118750000e+002	 4.83777e-003
1061	 1.4125000000e+002	 5.80992e-003
1062	 1.4131250000e+002	 5.60343e-003
1063	 1.4137500000e+002	 7.46563e-003
1064	 1.4143750000e+002	 7.07852e-003
1065	 1.4150000000e+002	 5.48417e-003
1066	 1.4156250000e+002	 6.37964e-003
1067	 1.4162500000e+002	 7.68809e-003
1068	 1.4168750000e+002	 9.70242e-003
1069	 1.4175000000e+002	 6.38324e-003
1070	 1.4181250000e+002	 9.09321e-003
1071	 1.4187500000e+002	 1.69840e-002
1072	 1.4193750000e+002	 1.35517e-002
1073	 1.4200000000e+002	 9.82273e-003
1074	 1.4206250000e+002	 8.19607e-003
1075	 1.4212500000e+002	 1.01645e-002
1076	 1.4218750000e+002	 7.66113e-003
1077	 1.4225000000e+002	 7.22382e-003
1078	 1.4231250000e+002	 6.56548e-003
1079	 1.4237500000e+002	 6.78648e-003
1080	 1.4243750000e+002	 3.85885e-003
1081	 1.4250000000e+002	 9.12920e-003
1082	 1.4256250000e+002	 1.43603e-002
1083	 1.4262500000e+002	 5.83175e-003
1084	 1.4268750000e+002	 5.22754e-003
1085	 1.4275000000e+002	 4.13279e-003
1086	 1.4281250000e+002	 3.89006e-003
1087	 1.4287500000e+002	 5.57879e-003
1088	 1.4293750000e+002	 7.40868e-003
1089	 1.4300000000e+002	 9.92013e-003
1090	 1.4306250000e+002	 1.09790e-002
1091	 1.4312500000e+002	 8.64932e-003
1092	 1.4318750000e+002	 6.91247e-003
1093	 1.4325000000e+002	 7.53802e-003
1094	 1.4331250000e+002	 1.26470e-002
1095	 1.4337500000e+002	 6.80494e-003
1096	 1.4343750000e+002	 4.85973e-003
1097	 1.4350000000e+002	 9.62682e-003
1098	 1.4356250000e+002	 9.85839e-003
1099	 1.4362500000e+002	 1.18331e-002
1100	 1.4368750000e+002	 1.07540e-002
1101	 1.4375000000e+002	 1.07315e-002
1102	 1.4381250000e+002	 8.64480e-003
1103	 1.4387500000e+002	 1.27377e-002
1104	 1.4393750000e+002	 1.57632e-002
1105	 1.4400000000e+002	 1.56807e-002
1106	 1.4406250000e+002	 1.08632e-002
1107	 1.4412500000e+002	 7.59778e-003
1108	 1.4418750000e+002	 8.18607e-003
1109	 1.4425000000e+002	 4.31504e-003
1110	 1.4431250000e+002	 6.30026e-003
1111	 1.4437500000e+002	 7.08482e-003
1112	 1.4443750000e+002	 4.60425e-003
1113	 1.4450000000e+002	 3.25522e-003
1114	 1.4456250000e+002	 4.93812e-003
1115	 1.4462500000e+002	 9.67894e-003
1116	 1.4468750000e+002	 6.90677e-003
1117	 1.4475000000e+002	 9.62689e-003
1118	 1.4481250000e+002	 1.07601e-002
1119	 1.4487500000e+002	 6.69561e-003
1120	 1.4493750000e+002	 8.63188e-003
1121	 1.4500000000e+002	 8.71999e-003
1122	 1.4506250000e+002	 7.19059e-003
1123	 1.4512500000e+002	 1.11888e-002
1124	 1.4518750000e+002	 1.03119e-002
1125	 1.4525000000e+002	 8.24129e-003
1126	 1.4531250000e+002	 6.39564e-003
1127	 1.4537500000e+002	 5.63530e-003
1128	 1.4543750000e+002	 8.64325e-003
1129	 1.4550000000e+002	 1.30088e-002
1130	 1.4556250000e+002	 2.20504e-002
1131	 1.4562500000e+002	 2.06625e-002
1132	 1.4568750000e+002	 1.40769e-002
1133	 1.4575000000e+002	 1.32132e-002
1134	 1.4581250000e+002	 2.79479e-002
1135	 1.4587500000e+002	 1.90658e-002
1136	 1.4593750000e+002	 1.38094e-002
1137	 1.4600000000e+002	 1.62464e-002
1138	 1.4606250000e+002	 1.02965e-002
1139	 1.4612500000e+002	 1.08489e-002
1140	 1.4618750000e+002	 8.26140e-003
1141	 1.4625000000e+002	 9.98105e-003
1142	 1.4631250000e+002	 1.86931e-002
1143	 1.4637500000e+002	 1.62664e-002
1144	 1.4643750000e+002	 1.41960e-002
1145	 1.4650000000e+002	 2.53975e-002
1146	 1.4656250000e+002	 3.01033e-002
1147	 1.4662500000e+002	 2.07162e-002
1148	 1.4668750000e+002	 1.00169e-002
1149	 1.4675000000e+002	 1.28085e-002
1150	 1.4681250000e+002	 1.31038e-002
1151	 1.4687500000e+002	 1.75759e-002
1152	 1.4693750000e+002	 1.45139e-002
1153	 1.4700000000e+002	 1.09370e-002
1154	 1.4706250000e+002	 1.74133e-002
1155	 1.4712500000e+002	 1.25459e-002
1156	 1.4718750000e+002	 8.33844e-003
1157	 1.4725000000e+002	 1.23023e-002
1158	 1.4731250000e+002	 1.47626e-002
1159	 1.4737500000e+002	 1.69695e-002
1160	 1.4743750000e+002	 1.98175e-002
1161	 1.4750000000e+002	 2.51614e-002
1162	 1.4756250000e+002	 1.96364e-002
1163	 1.4762500000e+002	 3.33964e-002
1164	 1.4768750000e+002	 2.65205e-002
1165	 1.4775000000e+002	 1.42660e-002
1166	 1.4781250000e+002	 1.11811e-002
1167	 1.4787500000e+002	 1.29381e-002
1168	 1.4793750000e+002	 2.15625e-002
1169	 1.4800000000e+002	 1.38177e-002
1170	 1.4806250000e+002	 1.79728e-002
1171	 1.4812500000e+002	 1.38053e-002
1172	 1.4818750000e+002	 1.37181e-002
1173	 1.4825000000e+002	 1.80346e-002
1174	 1.4831250000e+002	 1.11072e-002
1175	 1.4837500000e+002	 1.07904e-002
1176	 1.4843750000e+002	 1.32775e-002
1177	 1.4850000000e+002	 1.29244e-002
1178	 1.4856250000e+002	 1.64505e-002
1179	 1.4862500000e+002	 1.51798e-002
1180	 1.4868750000e+002	 7.96517e-003
1181	 1.4875000000e+002	 1.11943e-002
1182	 1.4881250000e+002	 1.38264e-002
1183	 1.4887500000e+002	 2.06292e-002
1184	 1.4893750000e+002	 3.00031e-002
1185	 1.4900000000e+002	 3.15536e-002
1186	 1.4906250000e+002	 2.46155e-002
1187	 1.4912500000e+002	 2.40335e-002
1188	 1.4918750000e+002	 2.14166e-002
1189	 1.4925000000e+002	 1.93690e-002
1190	 1.4931250000e+002	 2.96920e-002
1191	 1.4937500000e+002	 2.41010e-002
1192	 1.4943750000e+002	 2.21907e-002
1193	 1.4950000000e+002	 1.96636e-002
1194	 1.4956250000e+002	 2.18826e-002
1195	 1.4962500000e+002	 1.78279e-002
1196	 1.4968750000e+002	 1.20051e-002
1197	 1.4975000000e+002	 1.19929e-002
1198	 1.4981250000e+002	 2.70205e-002
1199	 1.4987500000e+002	 2.30613e-002
1200	 1.4993750000e+002	 1.19758e-002
1201	 1.5000000000e+002	 1.60994e-002
1202	 1.5006250000e+002	 1.82443e-002
1203	 1.5012500000e+002	 1.37000e-002
1204	 1.5018750000e+002	 9.12169e-003
1205	 1.5025000000e+002	 1.72485e-002
1206	 1.5031250000e+002	 1.52697e-002
1207	 1.5037500000e+002	 1.20406e-002
1208	 1.5043750000e+002	 1.59295e-002
1209	 1.5050000000e+002	 3.33061e-002
1210	 1.5056250000e+002	 2.87890e-002
1211	 1.5062500000e+002	 2.66039e-002
1212	 1.5068750000e+002	 3.37766e-002
1213	 1.5075000000e+002	 2.88888e-002
1214	 1.5081250000e+002	 2.71628e-002
1215	 1.5087500000e+002	 4.19063e-002
1216	 1.5093750000e+002	 3.21215e-002
1217	 1.5100000000e+002	 2.83351e-002
1218	 1.5106250000e+002	 3.63256e-002
1219	 1.5112500000e+002	 3.17695e-002
1220	 1.5118750000e+002	 3.10579e-002
1221	 1.5125000000e+002	 1.82583e-002
1222	 1.5131250000e+002	 2.48210e-002
1223	 1.5137500000e+002	 2.73170e-002
1224	 1.5143750000e+002	 2.25808e-002
1225	 1.5150000000e+002	 3.11462e-002
1226	 1.5156250000e+002	 3.43901e-002
1227	 1.5162500000e+002	 2.73824e-002
1228	 1.5168750000e+002	 3.83475e-002
1229	 1.5175000000e+002	 3.11552e-002
1230	 1.5181250000e+002	 3.80164e-002
1231	 1.5187500000e+002	 2.43734e-002
1232	 1.5193750000e+002	 1.73733e-002
1233	 1.5200000000e+002	 1.69798e-002
1234	 1.5206250000e+002	 2.12806e-002
1235	 1.5212500000e+002	 2.63820e-002
1236	 1.5218750000e+002	 3.77195e-002
1237	 1.5225000000e+002	 4.09963e-002
1238	 1.5231250000e+002	 2.71622e-002
1239	 1.5237500000e+002	 2.51144e-002
1240	 1.5243750000e+002	 2.15265e-002
1241	 1.5250000000e+002	 2.41538e-002
1242	 1.5256250000e+002	 1.84368e-002
1243	 1.5262500000e+002	 2.55430e-002
1244	 1.5268750000e+002	 2.50898e-002
1245	 1.5275000000e+002	 3.23500e-002
1246	 1.5281250000e+002	 4.06648e-002
1247	 1.5287500000e+002	 6.03944e-002
1248	 1.5293750000e+002	 6.15144e-002
1249	 1.5300000000e+002	 6.88128e-002
1250	 1.5306250000e+002	 4.47412e-002
1251	 1.5312500000e+002	 2.85492e-002
1252	 1.5318750000e+002	 4.02768e-002
1253	 1.5325000000e+002	 3.81087e-002
1254	 1.5331250000e+002	 4.89999e-002
1255	 1.5337500000e+002	 4.51719e-002
1256	 1.5343750000e+002	 4.51202e-002
1257	 1.5350000000e+002	 2.20985e-002
1258	 1.5356250000e+002	 2.26210e-002
1259	 1.5362500000e+002	 3.40234e-002
1260	 1.5368750000e+002	 1.82010e-002
1261	 1.5375000000e+002	 3.54949e-002
1262	 1.5381250000e+002	 5.00986e-002
1263	 1.5387500000e+002	 6.42968e-002
1264	 1.5393750000e+002	 6.61381e-002
1265	 1.5400000000e+002	 5.82098e-002
1266	 1.5406250000e+002	 3.57915e-002
1267	 1.5412500000e+002	 3.02060e-002
1268	 1.5418750000e+002	 2.16347e-002
1269	 1.5425000000e+002	 3.16998e-002
1270	 1.5431250000e+002	 5.09821e-002
1271	 1.5437500000e+002	 6.66248e-002
1272	 1.5443750000e+002	 9.77850e-002
1273	 1.5450000000e+002	 5.47667e-002
1274	 1.5456250000e+002	 5.81315e-002
1275	 1.5462500000e+002	 8.64353e-002
1276	 1.5468750000e+002	 4.87589e-002
1277	 1.5475000000e+002	 2.35523e-002
1278	 1.5481250000e+002	 3.76182e-002
1279	 1.5487500000e+002	 4.27219e-002
1280	 1.5493750000e+002	 4.66191e-002
1281	 1.5500000000e+002	 6.32926e-002
1282	 1.5506250000e+002	 8.09997e-002
1283	 1.5512500000e+002	 9.38974e-002
1284	 1.5518750000e+002	 1.12933e-001
1285	 1.5525000000e+002	 7.16790e-002
1286	 1.5531250000e+002	 7.56937e-002
1287	 1.5537500000e+002	 1.57859e-001
1288	 1.5543750000e+002	 1.47860e-001
1289	 1.5550000000e+002	 1.05020e-001
1290	 1.5556250000e+002	 1.77442e-001
1291	 1.5562500000e+002	 1.33703e-001
1292	 1.5568750000e+002	 1.31165e-001
1293	 1.5575000000e+002	 1.34582e-001
1294	 1.5581250000e+002	 1.73448e-001
1295	 1.5587500000e+002	 1.22621e-001
1296	 1.5593750000e+002	 4.52635e-002
1297	 1.5600000000e+002	 6.38679e-002
1298	 1.5606250000e+002	 1.14058e-001
1299	 1.5612500000e+002	 1.51189e-001
1300	 1.5618750000e+002	 1.55121e-001
1301	 1.5625000000e+002	 1.03949e-001
1302	 1.5631250000e+002	 7.10988e-002
1303	 1.5637500000e+002	 1.07432e-001
1304	 1.5643750000e+002	 9.01038e-002
1305	 1.5650000000e+002	 3.17040e-002
1306	 1.5656250000e+002	 2.67282e-002
1307	 1.5662500000e+002	 6.41005e-002
1308	 1.5668750000e+002	 1.01747e-001
1309	 1.5675000000e+002	 1.26604e-001
1310	 1.5681250000e+002	 1.09521e-001
1311	 1.5687500000e+002	 7.79481e-002
1312	 1.5693750000e+002	 1.13458e-001
1313	 1.5700000000e+002	 1.67183e-001
1314	 1.5706250000e+002	 8.52733e-002
1315	 1.5712500000e+002	 6.56059e-002
1316	 1.5718750000e+002	 7.89690e-002
1317	 1.5725000000e+002	 7.42518e-002
1318	 1.5731250000e+002	 6.31690e-002
1319	 1.5737500000e+002	 5.77684e-002
1320	 1.5743750000e+002	 8.46403e-002
1321	 1.5750000000e+002	 1.72781e-001
1322	 1.5756250000e+002	 1.64820e-001
1323	 1.5762500000e+002	 1.30455e-001
1324	 1.5768750000e+002	 1.15050e-001
1325	 1.5775000000e+002	 1.01590e-001
1326	 1.5781250000e+002	 1.18531e-001
1327	 1.5787500000e+002	 1.71909e-001
1328	 1.5793750000e+002	 1.90254e-001
1329	 1.5800000000e+002	 1.49838e-001
1330	 1.5806250000e+002	 1.04409e-001
1331	 1.5812500000e+002	 1.10147e-001
1332	 1.5818750000e+002	 1.77703e-001
1333	 1.5825000000e+002	 1.46145e-001
1334	 1.5831250000e+002	 1.97906e-001
1335	 1.5837500000e+002	 1.68224e-001
1336	 1.5843750000e+002	 1.07959e-001
1337	 1.5850000000e+002	 1.77321e-001
1338	 1.5856250000e+002	 1.61225e-001
1339	 1.5862500000e+002	 7.54238e-002
1340	 1.5868750000e+002	 1.37577e-001
1341	 1.5875000000e+002	 2.15869e-001
1342	 1.5881250000e+002	 2.70295e-001
1343	 1.5887500000e+002	 2.30097e-001
1344	 1.5893750000e+002	 1.83460e-001
1345	 1.5900000000e+002	 3.53251e-001
1346	 1.5906250000e+002	 5.02505e-001
1347	 1.5912500000e+002	 2.85799e-001
1348	 1.5918750000e+002	 1.96865e-001
1349	 1.5925000000e+002	 1.81006e-001
1350	 1.5931250000e+002	 2.70433e-001
1351	 1.5937500000e+002	 2.15691e-001
1352	 1.5943750000e+002	 2.78056e-001
1353	 1.5950000000e+002	 2.04325e-001
1354	 1.5956250000e+002	 1.45644e-001
1355	 1.5962500000e+002	 2.48693e-001
1356	 1.5968750000e+002	 3.47831e-001
1357	 1.5975000000e+002	 2.41392e-001
1358	 1.5981250000e+002	 1.24300e-001
1359	 1.5987500000e+002	 8.79625e-002
1360	 1.5993750000e+002	 1.18536e-001
1361	 1.6000000000e+002	 1.66085e-001
1362	 1.6006250000e+002	 2.96651e-001
1363	 1.6012500000e+002	 5.55859e-001
1364	 1.6018750000e+002	 5.16770e-001
1365	 1.6025000000e+002	 3.15117e-001
1366	 1.6031250000e+002	 4.19550e-001
1367	 1.6037500000e+002	 4.90328e-001
1368	 1.6043750000e+002	 2.29395e-001
1369	 1.6050000000e+002	 2.61026e-001
1370	 1.6056250000e+002	 3.06510e-001
1371	 1.6062500000e+002	 3.27156e-001
1372	 1.6068750000e+002	 2.46443e-001
1373	 1.6075000000e+002	 2.33240e-001
1374	 1.6081250000e+002	 3.95151e-001
1375	 1.6087500000e+002	 4.12722e-001
1376	 1.6093750000e+002	 4.56258e-001
1377	 1.6100000000e+002	 4.87903e-001
1378	 1.6106250000e+002	 1.90887e-001
1379	 1.6112500000e+002	 2.88291e-001
1380	 1.6118750000e+002	 3.53059e-001
1381	 1.6125000000e+002	 1.85109e-001
1382	 1.6131250000e+002	 1.21201e-001
1383	 1.6137500000e+002	 2.90278e-001
1384	 1.6143750000e+002	 6.18180e-001
1385	 1.6150000000e+002	 5.20412e-001
1386	 1.6156250000e+002	 2.35395e-001
1387	 1.6162500000e+002	 2.78069e-001
1388	 1.6168750000e+002	 2.97789e-001
1389	 1.6175000000e+002	 1.65177e-001
1390	 1.6181250000e+002	 1.50436e-001
1391	 1.6187500000e+002	 3.59225e-001
1392	 1.6193750000e+002	 5.19786e-001
1393	 1.6200000000e+002	 3.64029e-001
1394	 1.6206250000e+002	 1.66847e-001
1395	 1.6212500000e+002	 2.91865e-001
1396	 1.6218750000e+002	 2.73580e-001
1397	 1.6225000000e+002	 4.67706e-001
1398	 1.6231250000e+002	 5.20727e-001
1399	 1.6237500000e+002	 3.42208e-001
1400	 1.6243750000e+002	 2.53222e-001
1401	 1.6250000000e+002	 2.13486e-001
1402	 1.6256250000e+002	 3.69902e-001
1403	 1.6262500000e+002	 3.91910e-001
1404	 1.6268750000e+002	 2.09228e-001
1405	 1.6275000000e+002	 1.94899e-001
1406	 1.6281250000e+002	 1.62414e-001
1407	 1.6287500000e+002	 7.95431e-002
1408	 1.6293750000e+002	 1.64849e-001
1409	 1.6300000000e+002	 2.81097e-001
1410	 1.6306250000e+002	 2.85456e-001
1411	 1.6312500000e+002	 2.51552e-001
1412	 1.6318750000e+002	 3.72381e-001
1413	 1.6325000000e+002	 2.07067e-001
1414	 1.6331250000e+002	 2.25107e-001
1415	 1.6337500000e+002	 2.56210e-001
1416	 1.6343750000e+002	 2.24438e-001
1417	 1.6350000000e+002	 1.49027e-001
1418	 1.6356250000e+002	 8.94551e-002
1419	 1.6362500000e+002	 1.12738e-001
1420	 1.6368750000e+002	 1.61234e-001
1421	 1.6375000000e+002	 2.37909e-001
1422	 1.6381250000e+002	 3.37732e-001
1423	 1.6387500000e+002	 2.01266e-001
1424	 1.6393750000e+002	 1.31294e-001
1425	 1.6400000000e+002	 2.56147e-001
1426	 1.6406250000e+002	 2.98550e-001
1427	 1.6412500000e+002	 2.20067e-001
1428	 1.6418750000e+002	 1.23060e-001
1429	 1.6425000000e+002	 1.70832e-001
1430	 1.6431250000e+002	 2.07208e-001
1431	 1.6437500000e+002	 1.17465e-001
1432	 1.6443750000e+002	 9.87656e-002
1433	 1.6450000000e+002	 1.19644e-001
1434	 1.6456250000e+002	 1.14926e-001
1435	 1.6462500000e+002	 1.94875e-001
1436	 1.6468750000e+002	 1.81793e-001
1437	 1.6475000000e+002	 1.08150e-001
1438	 1.6481250000e+002	 9.33505e-002
1439	 1.6487500000e+002	 1.02190e-001
1440	 1.6493750000e+002	 1.01739e-001
1441	 1.6500000000e+002	 8.77225e-002
1442	 1.6506250000e+002	 1.26767e-001
1443	 1.6512500000e+002	 1.79828e-001
1444	 1.6518750000e+002	 1.27271e-001
1445	 1.6525000000e+002	 8.69906e-002
1446	 1.6531250000e+002	 1.04994e-001
1447	 1.6537500000e+002	 1.62582e-001
1448	 1.6543750000e+002	 1.66437e-001
1449	 1.6550000000e+002	 1.20209e-001
1450	 1.6556250000e+002	 6.95479e-002
1451	 1.6562500000e+002	 7.95960e-002
1452	 1.6568750000e+002	 5.55411e-002
1453	 1.6575000000e+002	 3.84465e-002
1454	 1.6581250000e+002	 5.72545e-002
1455	 1.6587500000e+002	 8.95689e-002
1456	 1.6593750000e+002	 6.60713e-002
1457	 1.6600000000e+002	 7.51826e-002
1458	 1.6606250000e+002	 6.98071e-002
1459	 1.6612500000e+002	 9.61530e-002
1460	 1.6618750000e+002	 7.06185e-002
1461	 1.6625000000e+002	 1.27087e-001
1462	 1.6631250000e+002	 1.73922e-001
1463	 1.6637500000e+002	 9.25862e-002
1464	 1.6643750000e+002	 9.01126e-002
1465	 1.6650000000e+002	 6.35845e-002
1466	 1.6656250000e+002	 5.49890e-002
1467	 1.6662500000e+002	 7.81459e-002
1468	 1.6668750000e+002	 6.54727e-002
1469	 1.6675000000e+002	 7.55939e-002
1470	 1.6681250000e+002	 7.72147e-002
1471	 1.6687500000e+002	 7.80171e-002
1472	 1.6693750000e+002	 6.06185e-002
1473	 1.6700000000e+002	 8.32584e-002
1474	 1.6706250000e+002	 5.91080e-002
1475	 1.6712500000e+002	 6.09987e-002
1476	 1.6718750000e+002	 7.60816e-002
1477	 1.6725000000e+002	 6.20454e-002
1478	 1.6731250000e+002	 5.49287e-002
1479	 1.6737500000e+002	 5.19677e-002
1480	 1.6743750000e+002	 3.92808e-002
1481	 1.6750000000e+002	 5.80556e-002
1482	 1.6756250000e+002	 4.87435e-002
1483	 1.6762500000e+002	 5.14779e-002
1484	 1.6768750000e+002	 4.40475e-002
1485	 1.6775000000e+002	 4.64862e-002
1486	 1.6781250000e+002	 4.15871e-002
1487	 1.6787500000e+002	 4.34678e-002
1488	 1.6793750000e+002	 5.08262e-002
1489	 1.6800000000e+002	 5.38568e-002
1490	 1.6806250000e+002	 7.40049e-002
1491	 1.6812500000e+002	 6.10426e-002
1492	 1.6818750000e+002	 7.54377e-002
1493	 1.6825000000e+002	 6.95395e-002
1494	 1.6831250000e+002	 5.19462e-002
1495	 1.6837500000e+002	 5.18145e-002
1496	 1.6843750000e+002	 4.40791e-002
1497	 1.6850000000e+002	 6.50995e-002
1498	 1.6856250000e+002	 4.22209e-002
1499	 1.6862500000e+002	 5.85733e-002
1500	 1.6868750000e+002	 4.53549e-002
1501	 1.6875000000e+002	 4.24552e-002
1502	 1.6881250000e+002	 7.38466e-002
1503	 1.6887500000e+002	 7.07548e-002
1504	 1.6893750000e+002	 8.56424e-002
1505	 1.6900000000e+002	 5.20047e-002
1506	 1.6906250000e+002	 3.65263e-002
1507	 1.6912500000e+002	 4.18984e-002
1508	 1.6918750000e+002	 4.26750e-002
1509	 1.6925000000e+002	 8.04491e-002
1510	 1.6931250000e+002	 1.00902e-001
1511	 1.6937500000e+002	 5.71107e-002
1512	 1.6943750000e+002	 3.00170e-002
1513	 1.6950000000e+002	 4.93586e-002
1514	 1.6956250000e+002	 6.05592e-002
1515	 1.6962500000e+002	 6.19043e-002
1516	 1.6968750000e+002	 4.35570e-002
1517	 1.6975000000e+002	 4.96395e-002
1518	 1.6981250000e+002	 6.92452e-002
1519	 1.6987500000e+002	 9.50449e-002
1520	 1.6993750000e+002	 5.38064e-002
1521	 1.7000000000e+002	 3.45274e-002
1522	 1.7006250000e+002	 4.39006e-002
1523	 1.7012500000e+002	 6.44921e-002
1524	 1.7018750000e+002	 3.57457e-002
1525	 1.7025000000e+002	 3.27425e-002
1526	 1.7031250000e+002	 2.29423e-002
1527	 1.7037500000e+002	 1.50851e-002
1528	 1.7043750000e+002	 4.15054e-002
1529	 1.7050000000e+002	 6.65516e-002
1530	 1.7056250000e+002	 4.47219e-002
1531	 1.7062500000e+002	 4.98513e-002
1532	 1.7068750000e+002	 3.77466e-002
1533	 1.7075000000e+002	 2.76377e-002
1534	 1.7081250000e+002	 2.00599e-002
1535	 1.7087500000e+002	 1.66052e-002
1536	 1.7093750000e+002	 2.32435e-002
1537	 1.7100000000e+002	 1.93173e-002
1538	 1.7106250000e+002	 2.44440e-002
1539	 1.7112500000e+002	 4.06204e-002
1540	 1.7118750000e+002	 5.41054e-002
1541	 1.7125000000e+002	 5.49379e-002
1542	 1.7131250000e+002	 3.20516e-002
1543	 1.7137500000e+002	 3.29750e-002
1544	 1.7143750000e+002	 3.37322e-002
1545	 1.7150000000e+002	 1.35616e-002
1546	 1.7156250000e+002	 1.64242e-002
1547	 1.7162500000e+002	 3.03619e-002
1548	 1.7168750000e+002	 3.59569e-002
1549	 1.7175000000e+002	 3.76060e-002
1550	 1.7181250000e+002	 3.83068e-002
1551	 1.7187500000e+002	 3.33914e-002
1552	 1.7193750000e+002	 3.86660e-002
1553	 1.7200000000e+002	 4.67111e-002
1554	 1.7206250000e+002	 3.34503e-002
1555	 1.7212500000e+002	 2.67173e-002
1556	 1.7218750000e+002	 4.06724e-002
1557	 1.7225000000e+002	 5.31760e-002
1558	 1.7231250000e+002	 3.69165e-002
1559	 1.7237500000e+002	 4.72896e-002
1560	 1.7243750000e+002	 2.53141e-002
1561	 1.7250000000e+002	 1.16895e-002
1562	 1.7256250000e+002	 2.01188e-002
1563	 1.7262500000e+002	 2.79079e-002
1564	 1.7268750000e+002	 2.67575e-002
1565	 1.7275000000e+002	 4.47604e-002
1566	 1.7281250000e+002	 4.85393e-002
1567	 1.7287500000e+002	 3.95869e-002
1568	 1.7293750000e+002	 3.22704e-002
1569	 1.7300000000e+002	 2.43674e-002
1570	 1.7306250000e+002	 2.25669e-002
1571	 1.7312500000e+002	 2.39640e-002
1572	 1.7318750000e+002	 2.12884e-002
1573	 1.7325000000e+002	 4.01373e-002
1574	 1.7331250000e+002	 3.79165e-002
1575	 1.7337500000e+002	 3.13177e-002
1576	 1.7343750000e+002	 2.21867e-002
1577	 1.7350000000e+002	 1.48527e-002
1578	 1.7356250000e+002	 1.33744e-002
1579	 1.7362500000e+002	 1.75397e-002
1580	 1.7368750000e+002	 2.41872e-002
1581	 1.7375000000e+002	 2.38380e-002
1582	 1.7381250000e+002	 2.73750e-002
1583	 1.7387500000e+002	 1.89471e-002
1584	 1.7393750000e+002	 1.20466e-002
1585	 1.7400000000e+002	 1.21649e-002
1586	 1.7406250000e+002	 1.13017e-002
1587	 1.7412500000e+002	 1.36955e-002
1588	 1.7418750000e+002	 2.54390e-002
1589	 1.7425000000e+002	 3.03484e-002
1590	 1.7431250000e+002	 2.37071e-002
1591	 1.7437500000e+002	 2.66281e-002
1592	 1.7443750000e+002	 2.14800e-002
1593	 1.7450000000e+002	 2.66504e-002
1594	 1.7456250000e+002	 2.97887e-002
1595	 1.7462500000e+002	 1.52081e-002
1596	 1.7468750000e+002	 1.94032e-002
1597	 1.7475000000e+002	 3.65612e-002
1598	 1.7481250000e+002	 4.59199e-002
1599	 1.7487500000e+002	 4.59259e-002
1600	 1.7493750000e+002	 1.74865e-002
1601	 1.7500000000e+002	 1.56097e-002
1602	 1.7506250000e+002	 2.37151e-002
1603	 1.7512500000e+002	 2.80365e-002
1604	 1.7518750000e+002	 2.27356e-002
1605	 1.7525000000e+002	 3.27590e-002
1606	 1.7531250000e+002	 2.89430e-002
1607	 1.7537500000e+002	 1.04351e-002
1608	 1.7543750000e+002	 9.29792e-003
1609	 1.7550000000e+002	 1.66894e-002
1610	 1.7556250000e+002	 3.55210e-002
1611	 1.7562500000e+002	 2.61509e-002
1612	 1.7568750000e+002	 1.86118e-002
1613	 1.7575000000e+002	 3.18166e-002
1614	 1.7581250000e+002	 2.05281e-002
1615	 1.7587500000e+002	 2.37875e-002
1616	 1.7593750000e+002	 1.69686e-002
1617	 1.7600000000e+002	 1.04038e-002
1618	 1.7606250000e+002	 1.77282e-002
1619	 1.7612500000e+002	 1.40253e-002
1620	 1.7618750000e+002	 9.86009e-003
1621	 1.7625000000e+002	 1.58011e-002
1622	 1.7631250000e+002	 1.95482e-002
1623	 1.7637500000e+002	 1.98697e-002
1624	 1.7643750000e+002	 3.03249e-002
1625	 1.7650000000e+002	 3.56440e-002
1626	 1.7656250000e+002	 2.49517e-002
1627	 1.7662500000e+002	 8.98543e-003
1628	 1.7668750000e+002	 1.06868e-002
1629	 1.7675000000e+002	 1.40902e-002
1630	 1.7681250000e+002	 1.97039e-002
1631	 1.7687500000e+002	 1.07283e-002
1632	 1.7693750000e+002	 1.13034e-002
1633	 1.7700000000e+002	 2.07685e-002
1634	 1.7706250000e+002	 1.76740e-002
1635	 1.7712500000e+002	 1.37498e-002
1636	 1.7718750000e+002	 1.48781e-002
1637	 1.7725000000e+002	 1.28011e-002
1638	 1.7731250000e+002	 7.27691e-003
1639	 1.7737500000e+002	 9.90413e-003
1640	 1.7743750000e+002	 1.29247e-002
1641	 1.7750000000e+002	 1.10133e-002
1642	 1.7756250000e+002	 8.86136e-003
1643	 1.7762500000e+002	 9.27933e-003
1644	 1.7768750000e+002	 1.14854e-002
1645	 1.7775000000e+002	 1.60050e-002
1646	 1.7781250000e+002	 1.37594e-002
1647	 1.7787500000e+002	 1.78408e-002
1648	 1.7793750000e+002	 1.21468e-002
1649	 1.7800000000e+002	 1.35792e-002
1650	 1.7806250000e+002	 1.58095e-002
1651	 1.7812500000e+002	 1.66215e-002
1652	 1.7818750000e+002	 1.81503e-002
1653	 1.7825000000e+002	 1.38770e-002
1654	 1.7831250000e+002	 1.26644e-002
1655	 1.7837500000e+002	 1.84876e-002
1656	 1.7843750000e+002	 1.80569e-002
1657	 1.7850000000e+002	 2.02409e-002
1658	 1.7856250000e+002	 1.11227e-002
1659	 1.7862500000e+002	 1.65020e-002
1660	 1.7868750000e+002	 1.31638e-002
1661	 1.7875000000e+002	 1.22830e-002
1662	 1.7881250000e+002	 1.67899e-002
1663	 1.7887500000e+002	 1.33301e-002
1664	 1.7893750000e+002	 1.23432e-002
1665	 1.7900000000e+002	 1.73210e-002
1666	 1.7906250000e+002	 1.57820e-002
1667	 1.7912500000e+002	 1.40471e-002
1668	 1.7918750000e+002	 1.09794e-002
1669	 1.7925000000e+002	 1.91398e-002
1670	 1.7931250000e+002	 1.85268e-002
1671	 1.7937500000e+002	 7.21431e-003
1672	 1.7943750000e+002	 6.52452e-003
1673	 1.7950000000e+002	 1.52192e-002
1674	 1.7956250000e+002	 2.14329e-002
1675	 1.7962500000e+002	 1.86890e-002
1676	 1.7968750000e+002	 1.04864e-002
1677	 1.7975000000e+002	 7.50308e-003
1678	 1.7981250000e+002	 9.17475e-003
1679	 1.7987500000e+002	 1.77238e-002
1680	 1.7993750000e+002	 1.14946e-002
1681	 1.8000000000e+002	 1.17382e-002
1682	 1.8006250000e+002	 1.56385e-002
1683	 1.8012500000e+002	 8.47554e-003
1684	 1.8018750000e+002	 8.16094e-003
1685	 1.8025000000e+002	 1.24095e-002
1686	 1.8031250000e+002	 1.31541e-002
1687	 1.8037500000e+002	 1.72670e-002
1688	 1.8043750000e+002	 3.50328e-002
1689	 1.8050000000e+002	 2.50911e-002
1690	 1.8056250000e+002	 1.92526e-002
1691	 1.8062500000e+002	 2.04211e-002
1692	 1.8068750000e+002	 2.47681e-002
1693	 1.8075000000e+002	 2.20435e-002
1694	 1.8081250000e+002	 1.40484e-002
1695	 1.8087500000e+002	 1.65566e-002
1696	 1.8093750000e+002	 1.63956e-002
1697	 1.8100000000e+002	 1.37597e-002
1698	 1.8106250000e+002	 1.94884e-002
1699	 1.8112500000e+002	 1.79246e-002
1700	 1.8118750000e+002	 7.50468e-003
1701	 1.8125000000e+002	 7.19969e-003
1702	 1.8131250000e+002	 1.31134e-002
1703	 1.8137500000e+002	 1.69004e-002
1704	 1.8143750000e+002	 2.01863e-002
1705	 1.8150000000e+002	 2.79539e-002
1706	 1.8156250000e+002	 2.27699e-002
1707	 1.8162500000e+002	 1.48039e-002
1708	 1.8168750000e+002	 1.34944e-002
1709	 1.8175000000e+002	 2.27620e-002
1710	 1.8181250000e+002	 1.71760e-002
1711	 1.8187500000e+002	 2.28871e-002
1712	 1.8193750000e+002	 3.25464e-002
1713	 1.8200000000e+002	 3.06717e-002
1714	 1.8206250000e+002	 2.06108e-002
1715	 1.8212500000e+002	 1.95907e-002
1716	 1.8218750000e+002	 1.02387e-002
1717	 1.8225000000e+002	 1.06388e-002
1718	 1.8231250000e+002	 1.37126e-002
1719	 1.8237500000e+002	 8.34220e-003
1720	 1.8243750000e+002	 1.06408e-002
1721	 1.8250000000e+002	 1.85110e-002
1722	 1.8256250000e+002	 1.81176e-002
1723	 1.8262500000e+002	 2.39645e-002
1724	 1.8268750000e+002	 1.83861e-002
1725	 1.8275000000e+002	 9.65635e-003
1726	 1.8281250000e+002	 1.13899e-002
1727	 1.8287500000e+002	 1.09104e-002
1728	 1.8293750000e+002	 1.60052e-002
1729	 1.8300000000e+002	 1.85371e-002
1730	 1.8306250000e+002	 1.61793e-002
1731	 1.8312500000e+002	 1.59981e-002
1732	 1.8318750000e+002	 1.60353e-002
1733	 1.8325000000e+002	 1.97867e-002
1734	 1.8331250000e+002	 1.62697e-002
1735	 1.8337500000e+002	 6.45446e-003
1736	 1.8343750000e+002	 1.23700e-002
1737	 1.8350000000e+002	 1.31934e-002
1738	 1.8356250000e+002	 1.72200e-002
1739	 1.8362500000e+002	 1.63488e-002
1740	 1.8368750000e+002	 1.69746e-002
1741	 1.8375000000e+002	 1.49352e-002
1742	 1.8381250000e+002	 1.47193e-002
1743	 1.8387500000e+002	 1.12310e-002
1744	 1.8393750000e+002	 9.42478e-003
1745	 1.8400000000e+002	 1.43863e-002
1746	 1.8406250000e+002	 1.18623e-002
1747	 1.8412500000e+002	 2.07320e-002
1748	 1.8418750000e+002	 2.08189e-002
1749	 1.8425000000e+002	 1.13059e-002
1750	 1.8431250000e+002	 1.36978e-002
1751	 1.8437500000e+002	 1.70615e-002
1752	 1.8443750000e+002	 1.47908e-002
1753	 1.8450000000e+002	 9.80946e-003
1754	 1.8456250000e+002	 1.04416e-002
1755	 1.8462500000e+002	 1.34629e-002
1756	 1.8468750000e+002	 9.76662e-003
1757	 1.8475000000e+002	 8.86507e-003
1758	 1.8481250000e+002	 1.33570e-002
1759	 1.8487500000e+002	 1.22580e-002
1760	 1.8493750000e+002	 6.56876e-003
1761	 1.8500000000e+002	 5.01739e-003
1762	 1.8506250000e+002	 5.72013e-003
1763	 1.8512500000e+002	 3.46049e-003
1764	 1.8518750000e+002	 7.65328e-003
1765	 1.8525000000e+002	 1.03897e-002
1766	 1.8531250000e+002	 1.01644e-002
1767	 1.8537500000e+002	 1.09541e-002
1768	 1.8543750000e+002	 1.32190e-002
1769	 1.8550000000e+002	 1.65103e-002
1770	 1.8556250000e+002	 1.57876e-002
1771	 1.8562500000e+002	 1.73503e-002
1772	 1.8568750000e+002	 1.34735e-002
1773	 1.8575000000e+002	 1.43506e-002
1774	 1.8581250000e+002	 1.32665e-002
1775	 1.8587500000e+002	 7.75794e-003
1776	 1.8593750000e+002	 8.72594e-003
1777	 1.8600000000e+002	 1.69252e-002
1778	 1.8606250000e+002	 1.08068e-002
1779	 1.8612500000e+002	 7.26172e-003
1780	 1.8618750000e+002	 7.65937e-003
1781	 1.8625000000e+002	 1.17039e-002
1782	 1.8631250000e+002	 1.44452e-002
1783	 1.8637500000e+002	 2.07493e-002
1784	 1.8643750000e+002	 1.58987e-002
1785	 1.8650000000e+002	 1.05764e-002
1786	 1.8656250000e+002	 1.15202e-002
1787	 1.8662500000e+002	 1.49167e-002
1788	 1.8668750000e+002	 2.18704e-002
1789	 1.8675000000e+002	 2.00435e-002
1790	 1.8681250000e+002	 1.05192e-002
1791	 1.8687500000e+002	 1.29805e-002
1792	 1.8693750000e+002	 1.20657e-002
1793	 1.8700000000e+002	 8.45979e-003
1794	 1.8706250000e+002	 1.05002e-002
1795	 1.8712500000e+002	 1.81447e-002
1796	 1.8718750000e+002	 1.70918e-002
1797	 1.8725000000e+002	 9.26159e-003
1798	 1.8731250000e+002	 1.36609e-002
1799	 1.8737500000e+002	 1.20212e-002
1800	 1.8743750000e+002	 7.61134e-003
1801	 1.8750000000e+002	 1.04411e-002
1802	 1.8756250000e+002	 1.33138e-002
1803	 1.8762500000e+002	 1.13007e-002
1804	 1.8768750000e+002	 7.33722e-003
1805	 1.8775000000e+002	 9.04649e-003
1806	 1.8781250000e+002	 1.59730e-002
1807	 1.8787500000e+002	 1.43159e-002
1808	 1.8793750000e+002	 1.11188e-002
1809	 1.8800000000e+002	 7.91635e-003
1810	 1.8806250000e+002	 1.32854e-002
1811	 1.8812500000e+002	 2.09597e-002
1812	 1.8818750000e+002	 6.33685e-003
1813	 1.8825000000e+002	 1.20206e-002
1814	 1.8831250000e+002	 1.35414e-002
1815	 1.8837500000e+002	 9.02740e-003
1816	 1.8843750000e+002	 9.70340e-003
1817	 1.8850000000e+002	 1.39471e-002
1818	 1.8856250000e+002	 1.44087e-002
1819	 1.8862500000e+002	 1.36919e-002
1820	 1.8868750000e+002	 1.61701e-002
1821	 1.8875000000e+002	 7.00912e-003
1822	 1.8881250000e+002	 8.85881e-003
1823	 1.8887500000e+002	 1.32186e-002
1824	 1.8893750000e+002	 1.55279e-002
1825	 1.8900000000e+002	 1.03342e-002
1826	 1.8906250000e+002	 1.09762e-002
1827	 1.8912500000e+002	 1.18944e-002
1828	 1.8918750000e+002	 8.61641e-003
1829	 1.8925000000e+002	 8.45569e-003
1830	 1.8931250000e+002	 7.66833e-003
1831	 1.8937500000e+002	 1.25884e-002
1832	 1.8943750000e+002	 1.14575e-002
1833	 1.8950000000e+002	 1.86237e-002
1834	 1.8956250000e+002	 2.22923e-002
1835	 1.8962500000e+002	 1.91477e-002
1836	 1.8968750000e+002	 1.32926e-002
1837	 1.8975000000e+002	 1.62803e-002
1838	 1.8981250000e+002	 2.04432e-002
1839	 1.8987500000e+002	 1.19614e-002
1840	 1.8993750000e+002	 8.23663e-003
1841	 1.9000000000e+002	 7.60178e-003
1842	 1.9006250000e+002	 1.07938e-002
1843	 1.9012500000e+002	 1.50033e-002
1844	 1.9018750000e+002	 8.63910e-003
1845	 1.9025000000e+002	 1.53447e-002
1846	 1.9031250000e+002	 2.16566e-002
1847	 1.9037500000e+002	 2.99019e-002
1848	 1.9043750000e+002	 2.36217e-002
1849	 1.9050000000e+002	 1.17983e-002
1850	 1.9056250000e+002	 1.81186e-002
1851	 1.9062500000e+002	 2.07298e-002
1852	 1.9068750000e+002	 1.97433e-002
1853	 1.9075000000e+002	 1.94841e-002
1854	 1.9081250000e+002	 1.49900e-002
1855	 1.9087500000e+002	 1.77651e-002
1856	 1.9093750000e+002	 1.65440e-002
1857	 1.9100000000e+002	 2.27172e-002
1858	 1.9106250000e+002	 1.17464e-002
1859	 1.9112500000e+002	 7.94204e-003
1860	 1.9118750000e+002	 1.18491e-002
1861	 1.9125000000e+002	 9.57200e-003
1862	 1.9131250000e+002	 1.25024e-002
1863	 1.9137500000e+002	 1.38692e-002
1864	 1.9143750000e+002	 1.27873e-002
1865	 1.9150000000e+002	 1.12519e-002
1866	 1.9156250000e+002	 1.18679e-002
1867	 1.9162500000e+002	 9.44273e-003
1868	 1.9168750000e+002	 1.22525e-002
1869	 1.9175000000e+002	 1.37618e-002
1870	 1.9181250000e+002	 2.19979e-002
1871	 1.9187500000e+002	 2.03973e-002
1872	 1.9193750000e+002	 1.29009e-002
1873	 1.9200000000e+002	 1.54974e-002
1874	 1.9206250000e+002	 1.36088e-002
1875	 1.9212500000e+002	 1.51428e-002
1876	 1.9218750000e+002	 2.71399e-002
1877	 1.9225000000e+002	 2.67330e-002
1878	 1.9231250000e+002	 1.90445e-002
1879	 1.9237500000e+002	 1.43063e-002
1880	 1.9243750000e+002	 1.59487e-002
1881	 1.9250000000e+002	 1.69186e-002
1882	 1.9256250000e+002	 1.53852e-002
1883	 1.9262500000e+002	 1.34204e-002
1884	 1.9268750000e+002	 1.24271e-002
1885	 1.9275000000e+002	 1.00961e-002
1886	 1.9281250000e+002	 1.31308e-002
1887	 1.9287500000e+002	 1.04699e-002
1888	 1.9293750000e+002	 1.08038e-002
1889	 1.9300000000e+002	 1.28358e-002
1890	 1.9306250000e+002	 9.99049e-003
1891	 1.9312500000e+002	 1.06649e-002
1892	 1.9318750000e+002	 1.16971e-002
1893	 1.9325000000e+002	 1.04620e-002
1894	 1.9331250000e+002	 1.61004e-002
1895	 1.9337500000e+002	 1.63991e-002
1896	 1.9343750000e+002	 1.16792e-002
1897	 1.9350000000e+002	 1.15275e-002
1898	 1.9356250000e+002	 9.16796e-003
1899	 1.9362500000e+002	 1.36026e-002
1900	 1.9368750000e+002	 1.33331e-002
1901	 1.9375000000e+002	 1.15340e-002
1902	 1.9381250000e+002	 7.34158e-003
1903	 1.9387500000e+002	 7.06053e-003
1904	 1.9393750000e+002	 8.29495e-003
1905	 1.9400000000e+002	 1.10368e-002
1906	 1.9406250000e+002	 1.43905e-002
1907	 1.9412500000e+002	 1.80259e-002
1908	 1.9418750000e+002	 1.47375e-002
1909	 1.9425000000e+002	 1.33829e-002
1910	 1.9431250000e+002	 1.15513e-002
1911	 1.9437500000e+002	 2.03481e-002
1912	 1.9443750000e+002	 2.96139e-002
1913	 1.9450000000e+002	 1.80097e-002
1914	 1.9456250000e+002	 1.81292e-002
1915	 1.9462500000e+002	 1.97597e-002
1916	 1.9468750000e+002	 2.49983e-002
1917	 1.9475000000e+002	 1.33731e-002
1918	 1.9481250000e+002	 1.52166e-002
1919	 1.9487500000e+002	 1.43476e-002
1920	 1.9493750000e+002	 1.42908e-002
1921	 1.9500000000e+002	 2.08202e-002
1922	 1.9506250000e+002	 2.26483e-002
1923	 1.9512500000e+002	 1.30814e-002
1924	 1.9518750000e+002	 9.30915e-003
1925	 1.9525000000e+002	 6.71177e-003
1926	 1.9531250000e+002	 1.19228e-002
1927	 1.9537500000e+002	 1.27982e-002
1928	 1.9543750000e+002	 1.22916e-002
1929	 1.9550000000e+002	 1.72591e-002
1930	 1.9556250000e+002	 1.17046e-002
1931	 1.9562500000e+002	 1.45483e-002
1932	 1.9568750000e+002	 2.12742e-002
1933	 1.9575000000e+002	 2.77405e-002
1934	 1.9581250000e+002	 2.17078e-002
1935	 1.9587500000e+002	 1.76250e-002
1936	 1.9593750000e+002	 1.31768e-002
1937	 1.9600000000e+002	 1.28561e-002
1938	 1.9606250000e+002	 1.50127e-002
1939	 1.9612500000e+002	 1.70489e-002
1940	 1.9618750000e+002	 1.37182e-002
1941	 1.9625000000e+002	 7.44941e-003
1942	 1.9631250000e+002	 7.42053e-003
1943	 1.9637500000e+002	 5.70638e-003
1944	 1.9643750000e+002	 8.34270e-003
1945	 1.9650000000e+002	 9.58707e-003
1946	 1.9656250000e+002	 1.23101e-002
1947	 1.9662500000e+002	 1.88897e-002
1948	 1.9668750000e+002	 2.11354e-002
1949	 1.9675000000e+002	 1.02767e-002
1950	 1.9681250000e+002	 5.49490e-003
1951	 1.9687500000e+002	 1.24327e-002
1952	 1.9693750000e+002	 2.77700e-002
1953	 1.9700000000e+002	 2.87998e-002
1954	 1.9706250000e+002	 2.39434e-002
1955	 1.9712500000e+002	 1.94762e-002
1956	 1.9718750000e+002	 3.28293e-002
1957	 1.9725000000e+002	 2.41295e-002
1958	 1.9731250000e+002	 1.74221e-002
1959	 1.9737500000e+002	 1.01850e-002
1960	 1.9743750000e+002	 1.32461e-002
1961	 1.9750000000e+002	 2.68675e-002
1962	 1.9756250000e+002	 2.35157e-002
1963	 1.9762500000e+002	 1.95453e-002
1964	 1.9768750000e+002	 1.46382e-002
1965	 1.9775000000e+002	 9.11458e-003
1966	 1.9781250000e+002	 7.78201e-003
1967	 1.9787500000e+002	 1.56968e-002
1968	 1.9793750000e+002	 3.54262e-002
1969	 1.9800000000e+002	 2.20852e-002
1970	 1.9806250000e+002	 1.28337e-002
1971	 1.9812500000e+002	 1.26728e-002
1972	 1.9818750000e+002	 1.61581e-002
1973	 1.9825000000e+002	 1.18408e-002
1974	 1.9831250000e+002	 1.22675e-002
1975	 1.9837500000e+002	 1.85674e-002
1976	 1.9843750000e+002	 2.09146e-002
1977	 1.9850000000e+002	 1.15341e-002
1978	 1.9856250000e+002	 8.09689e-003
1979	 1.9862500000e+002	 1.11859e-002
1980	 1.9868750000e+002	 1.30585e-002
1981	 1.9875000000e+002	 2.49405e-002
1982	 1.9881250000e+002	 2.28568e-002
1983	 1.9887500000e+002	 1.99186e-002
1984	 1.9893750000e+002	 2.03969e-002
1985	 1.9900000000e+002	 2.72942e-002
1986	 1.9906250000e+002	 2.67863e-002
1987	 1.9912500000e+002	 1.71987e-002
1988	 1.9918750000e+002	 1.84630e-002
1989	 1.9925000000e+002	 2.49606e-002
1990	 1.9931250000e+002	 8.61060e-003
1991	 1.9937500000e+002	 1.59083e-002
1992	 1.9943750000e+002	 1.96839e-002
1993	 1.9950000000e+002	 1.73448e-002
1994	 1.9956250000e+002	 1.13793e-002
1995	 1.9962500000e+002	 1.59182e-002
1996	 1.9968750000e+002	 1.42665e-002
1997	 1.9975000000e+002	 1.17423e-002
1998	 1.9981250000e+002	 1.16716e-002
1999	 1.9987500000e+002	 2.70168e-002
2000	 1.9993750000e+002	 2.68896e-002
2001	 2.0000000000e+002	 2.57566e-002
2002	 2.0006250000e+002	 2.09709e-002
2003	 2.0012500000e+002	 2.07970e-002
2004	 2.0018750000e+002	 2.83335e-002
2005	 2.0025000000e+002	 3.67955e-002
2006	 2.0031250000e+002	 3.03552e-002
2007	 2.0037500000e+002	 3.38247e-002
2008	 2.0043750000e+002	 3.12576e-002
2009	 2.0050000000e+002	 2.91010e-002
2010	 2.0056250000e+002	 3.34036e-002
2011	 2.0062500000e+002	 1.03048e-002
2012	 2.0068750000e+002	 1.36235e-002
2013	 2.0075000000e+002	 1.34012e-002
2014	 2.0081250000e+002	 1.33844e-002
2015	 2.0087500000e+002	 1.54167e-002
2016	 2.0093750000e+002	 2.22946e-002
2017	 2.0100000000e+002	 1.92485e-002
2018	 2.0106250000e+002	 2.20158e-002
2019	 2.0112500000e+002	 2.30281e-002
2020	 2.0118750000e+002	 2.22468e-002
2021	 2.0125000000e+002	 1.60645e-002
2022	 2.0131250000e+002	 1.25278e-002
2023	 2.0137500000e+002	 2.79665e-002
2024	 2.0143750000e+002	 1.83279e-002
2025	 2.0150000000e+002	 1.79642e-002
2026	 2.0156250000e+002	 1.77881e-002
2027	 2.0162500000e+002	 2.94906e-002
2028	 2.0168750000e+002	 4.24299e-002
2029	 2.0175000000e+002	 4.09092e-002
2030	 2.0181250000e+002	 2.80934e-002
2031	 2.0187500000e+002	 3.28160e-002
2032	 2.0193750000e+002	 3.01124e-002
2033	 2.0200000000e+002	 3.60252e-002
2034	 2.0206250000e+002	 4.18620e-002
2035	 2.0212500000e+002	 2.32114e-002
2036	 2.0218750000e+002	 1.95073e-002
2037	 2.0225000000e+002	 1.74017e-002
2038	 2.0231250000e+002	 2.64805e-002
2039	 2.0237500000e+002	 4.64818e-002
2040	 2.0243750000e+002	 3.70036e-002
2041	 2.0250000000e+002	 4.34920e-002
2042	 2.0256250000e+002	 3.55444e-002
2043	 2.0262500000e+002	 3.13795e-002
2044	 2.0268750000e+002	 3.52254e-002
2045	 2.0275000000e+002	 3.41707e-002
2046	 2.0281250000e+002	 2.18654e-002
2047	 2.0287500000e+002	 2.37857e-002
2048	 2.0293750000e+002	 3.91544e-002
2049	 2.0300000000e+002	 4.42918e-002
2050	 2.0306250000e+002	 3.43758e-002
2051	 2.0312500000e+002	 2.17888e-002
2052	 2.0318750000e+002	 2.37204e-002
2053	 2.0325000000e+002	 3.62154e-002
2054	 2.0331250000e+002	 3.69958e-002
2055	 2.0337500000e+002	 3.09308e-002
2056	 2.0343750000e+002	 2.68770e-002
2057	 2.0350000000e+002	 2.78679e-002
2058	 2.0356250000e+002	 4.54611e-002
2059	 2.0362500000e+002	 4.26911e-002
2060	 2.0368750000e+002	 2.31489e-002
2061	 2.0375000000e+002	 2.02423e-002
2062	 2.0381250000e+002	 3.26996e-002
2063	 2.0387500000e+002	 5.73364e-002
2064	 2.0393750000e+002	 4.81789e-002
2065	 2.0400000000e+002	 2.09100e-002
2066	 2.0406250000e+002	 4.08735e-002
2067	 2.0412500000e+002	 4.47664e-002
2068	 2.0418750000e+002	 2.83144e-002
2069	 2.0425000000e+002	 2.29209e-002
2070	 2.0431250000e+002	 2.38088e-002
2071	 2.0437500000e+002	 2.32676e-002
2072	 2.0443750000e+002	 1.96588e-002
2073	 2.0450000000e+002	 2.00445e-002
2074	 2.0456250000e+002	 1.93361e-002
2075	 2.0462500000e+002	 2.75199e-002
2076	 2.0468750000e+002	 4.06003e-002
2077	 2.0475000000e+002	 2.43453e-002
2078	 2.0481250000e+002	 4.88110e-002
2079	 2.0487500000e+002	 5.33868e-002
2080	 2.0493750000e+002	 2.80154e-002
2081	 2.0500000000e+002	 2.46595e-002
2082	 2.0506250000e+002	 3.08783e-002
2083	 2.0512500000e+002	 3.50353e-002
2084	 2.0518750000e+002	 6.07035e-002
2085	 2.0525000000e+002	 6.72862e-002
2086	 2.0531250000e+002	 4.30209e-002
2087	 2.0537500000e+002	 4.56970e-002
2088	 2.0543750000e+002	 4.47221e-002
2089	 2.0550000000e+002	 5.47318e-002
2090	 2.0556250000e+002	 5.33010e-002
2091	 2.0562500000e+002	 4.68686e-002
2092	 2.0568750000e+002	 5.33738e-002
2093	 2.0575000000e+002	 3.89375e-002
2094	 2.0581250000e+002	 3.73549e-002
2095	 2.0587500000e+002	 4.71558e-002
2096	 2.0593750000e+002	 5.34313e-002
2097	 2.0600000000e+002	 6.15245e-002
2098	 2.0606250000e+002	 6.02544e-002
2099	 2.0612500000e+002	 5.12209e-002
2100	 2.0618750000e+002	 3.82815e-002
2101	 2.0625000000e+002	 2.83557e-002
2102	 2.0631250000e+002	 3.34165e-002
2103	 2.0637500000e+002	 3.15482e-002
2104	 2.0643750000e+002	 2.23236e-002
2105	 2.0650000000e+002	 3.88058e-002
2106	 2.0656250000e+002	 3.21063e-002
2107	 2.0662500000e+002	 4.08441e-002
2108	 2.0668750000e+002	 1.26892e-001
2109	 2.0675000000e+002	 1.19419e-001
2110	 2.0681250000e+002	 7.69310e-002
2111	 2.0687500000e+002	 7.77156e-002
2112	 2.0693750000e+002	 5.50658e-002
2113	 2.0700000000e+002	 5.91090e-002
2114	 2.0706250000e+002	 5.52612e-002
2115	 2.0712500000e+002	 3.29932e-002
2116	 2.0718750000e+002	 1.53720e-002
2117	 2.0725000000e+002	 2.45973e-002
2118	 2.0731250000e+002	 4.56397e-002
2119	 2.0737500000e+002	 6.37386e-002
2120	 2.0743750000e+002	 7.50076e-002
2121	 2.0750000000e+002	 4.43662e-002
2122	 2.0756250000e+002	 5.85186e-002
2123	 2.0762500000e+002	 8.46147e-002
2124	 2.0768750000e+002	 4.93855e-002
2125	 2.0775000000e+002	 2.45245e-002
2126	 2.0781250000e+002	 5.20939e-002
2127	 2.0787500000e+002	 7.53512e-002
2128	 2.0793750000e+002	 9.31954e-002
2129	 2.0800000000e+002	 1.19005e-001
2130	 2.0806250000e+002	 6.73278e-002
2131	 2.0812500000e+002	 5.74913e-002
2132	 2.0818750000e+002	 8.34066e-002
2133	 2.0825000000e+002	 1.35305e-001
2134	 2.0831250000e+002	 9.60680e-002
2135	 2.0837500000e+002	 9.10689e-002
2136	 2.0843750000e+002	 6.12695e-002
2137	 2.0850000000e+002	 7.37746e-002
2138	 2.0856250000e+002	 1.36287e-001
2139	 2.0862500000e+002	 1.45033e-001
2140	 2.0868750000e+002	 1.59099e-001
2141	 2.0875000000e+002	 1.22439e-001
2142	 2.0881250000e+002	 8.75506e-002
2143	 2.0887500000e+002	 1.31769e-001
2144	 2.0893750000e+002	 6.58451e-002
2145	 2.0900000000e+002	 5.22597e-002
2146	 2.0906250000e+002	 1.11449e-001
2147	 2.0912500000e+002	 1.13457e-001
2148	 2.0918750000e+002	 1.80320e-001
2149	 2.0925000000e+002	 2.44324e-001
2150	 2.0931250000e+002	 1.35270e-001
2151	 2.0937500000e+002	 1.00177e-001
2152	 2.0943750000e+002	 9.14030e-002
2153	 2.0950000000e+002	 9.14627e-002
2154	 2.0956250000e+002	 1.30561e-001
2155	 2.0962500000e+002	 1.12102e-001
2156	 2.0968750000e+002	 1.36170e-001
2157	 2.0975000000e+002	 9.93879e-002
2158	 2.0981250000e+002	 1.07956e-001
2159	 2.0987500000e+002	 1.06460e-001
2160	 2.0993750000e+002	 8.20258e-002
2161	 2.1000000000e+002	 1.35973e-001
2162	 2.1006250000e+002	 1.01593e-001
2163	 2.1012500000e+002	 4.55471e-002
2164	 2.1018750000e+002	 1.56064e-001
2165	 2.1025000000e+002	 2.68880e-001
2166	 2.1031250000e+002	 1.84096e-001
2167	 2.1037500000e+002	 1.42373e-001
2168	 2.1043750000e+002	 6.45385e-002
2169	 2.1050000000e+002	 9.54978e-002
2170	 2.1056250000e+002	 1.77733e-001
2171	 2.1062500000e+002	 1.23378e-001
2172	 2.1068750000e+002	 1.26637e-001
2173	 2.1075000000e+002	 1.50882e-001
2174	 2.1081250000e+002	 1.32836e-001
2175	 2.1087500000e+002	 2.01985e-001
2176	 2.1093750000e+002	 2.78470e-001
2177	 2.1100000000e+002	 2.19870e-001
2178	 2.1106250000e+002	 1.33356e-001
2179	 2.1112500000e+002	 1.19407e-001
2180	 2.1118750000e+002	 1.63604e-001
2181	 2.1125000000e+002	 1.54721e-001
2182	 2.1131250000e+002	 1.78081e-001
2183	 2.1137500000e+002	 1.66312e-001
2184	 2.1143750000e+002	 2.03303e-001
2185	 2.1150000000e+002	 2.80870e-001
2186	 2.1156250000e+002	 4.27071e-001
2187	 2.1162500000e+002	 2.85829e-001
2188	 2.1168750000e+002	 3.98969e-001
2189	 2.1175000000e+002	 2.72685e-001
2190	 2.1181250000e+002	 2.69428e-001
2191	 2.1187500000e+002	 3.95770e-001
2192	 2.1193750000e+002	 3.51817e-001
2193	 2.1200000000e+002	 2.74531e-001
2194	 2.1206250000e+002	 2.87049e-001
2195	 2.1212500000e+002	 2.49936e-001
2196	 2.1218750000e+002	 8.78769e-002
2197	 2.1225000000e+002	 1.43122e-001
2198	 2.1231250000e+002	 3.11172e-001
2199	 2.1237500000e+002	 3.02040e-001
2200	 2.1243750000e+002	 3.28341e-001
2201	 2.1250000000e+002	 2.49404e-001
2202	 2.1256250000e+002	 3.86219e-001
2203	 2.1262500000e+002	 4.70383e-001
2204	 2.1268750000e+002	 5.79295e-001
2205	 2.1275000000e+002	 3.57626e-001
2206	 2.1281250000e+002	 1.72293e-001
2207	 2.1287500000e+002	 2.52689e-001
2208	 2.1293750000e+002	 2.33998e-001
2209	 2.1300000000e+002	 3.38512e-001
2210	 2.1306250000e+002	 3.41306e-001
2211	 2.1312500000e+002	 2.15670e-001
2212	 2.1318750000e+002	 2.44687e-001
2213	 2.1325000000e+002	 4.88154e-001
2214	 2.1331250000e+002	 5.36922e-001
2215	 2.1337500000e+002	 6.35293e-001
2216	 2.1343750000e+002	 5.93720e-001
2217	 2.1350000000e+002	 4.76986e-001
2218	 2.1356250000e+002	 5.74568e-001
2219	 2.1362500000e+002	 8.35039e-001
2220	 2.1368750000e+002	 4.81943e-001
2221	 2.1375000000e+002	 2.26188e-001
2222	 2.1381250000e+002	 2.67305e-001
2223	 2.1387500000e+002	 3.53647e-001
2224	 2.1393750000e+002	 4.14788e-001
2225	 2.1400000000e+002	 5.08131e-001
2226	 2.1406250000e+002	 4.91517e-001
2227	 2.1412500000e+002	 6.46556e-001
2228	 2.1418750000e+002	 5.50453e-001
2229	 2.1425000000e+002	 9.89723e-001
2230	 2.1431250000e+002	 7.79891e-001
2231	 2.1437500000e+002	 6.00887e-001
2232	 2.1443750000e+002	 5.62409e-001
2233	 2.1450000000e+002	 4.07879e-001
2234	 2.1456250000e+002	 2.11909e-001
2235	 2.1462500000e+002	 2.71857e-001
2236	 2.1468750000e+002	 4.89912e-001
2237	 2.1475000000e+002	 3.73669e-001
2238	 2.1481250000e+002	 2.68590e-001
2239	 2.1487500000e+002	 2.21440e-001
2240	 2.1493750000e+002	 3.58427e-001
2241	 2.1500000000e+002	 4.31435e-001
2242	 2.1506250000e+002	 4.89000e-001
2243	 2.1512500000e+002	 3.55610e-001
2244	 2.1518750000e+002	 3.28085e-001
2245	 2.1525000000e+002	 3.50780e-001
2246	 2.1531250000e+002	 4.67281e-001
2247	 2.1537500000e+002	 2.84288e-001
2248	 2.1543750000e+002	 2.90254e-001
2249	 2.1550000000e+002	 2.08136e-001
2250	 2.1556250000e+002	 2.54852e-001
2251	 2.1562500000e+002	 2.75328e-001
2252	 2.1568750000e+002	 4.34621e-001
2253	 2.1575000000e+002	 4.01828e-001
2254	 2.1581250000e+002	 3.25592e-001
2255	 2.1587500000e+002	 4.75973e-001
2256	 2.1593750000e+002	 3.74601e-001
2257	 2.1600000000e+002	 2.77823e-001
2258	 2.1606250000e+002	 3.05268e-001
2259	 2.1612500000e+002	 3.12930e-001
2260	 2.1618750000e+002	 1.77721e-001
2261	 2.1625000000e+002	 2.63406e-001
2262	 2.1631250000e+002	 2.77988e-001
2263	 2.1637500000e+002	 4.06738e-001
2264	 2.1643750000e+002	 6.43540e-001
2265	 2.1650000000e+002	 3.33221e-001
2266	 2.1656250000e+002	 1.76590e-001
2267	 2.1662500000e+002	 1.81915e-001
2268	 2.1668750000e+002	 2.48542e-001
2269	 2.1675000000e+002	 2.73016e-001
2270	 2.1681250000e+002	 1.96282e-001
2271	 2.1687500000e+002	 1.68656e-001
2272	 2.1693750000e+002	 2.33254e-001
2273	 2.1700000000e+002	 3.48029e-001
2274	 2.1706250000e+002	 2.83975e-001
2275	 2.1712500000e+002	 2.09986e-001
2276	 2.1718750000e+002	 1.93823e-001
2277	 2.1725000000e+002	 1.45649e-001
2278	 2.1731250000e+002	 1.64580e-001
2279	 2.1737500000e+002	 1.44780e-001
2280	 2.1743750000e+002	 2.31376e-001
2281	 2.1750000000e+002	 2.14485e-001
2282	 2.1756250000e+002	 1.75852e-001
2283	 2.1762500000e+002	 1.80550e-001
2284	 2.1768750000e+002	 6.46284e-002
2285	 2.1775000000e+002	 1.63638e-001
2286	 2.1781250000e+002	 1.97584e-001
2287	 2.1787500000e+002	 8.19555e-002
2288	 2.1793750000e+002	 1.19429e-001
2289	 2.1800000000e+002	 1.47885e-001
2290	 2.1806250000e+002	 1.28208e-001
2291	 2.1812500000e+002	 1.40874e-001
2292	 2.1818750000e+002	 1.44922e-001
2293	 2.1825000000e+002	 1.77451e-001
2294	 2.1831250000e+002	 1.33976e-001
2295	 2.1837500000e+002	 1.58853e-001
2296	 2.1843750000e+002	 1.27984e-001
2297	 2.1850000000e+002	 1.56826e-001
2298	 2.1856250000e+002	 1.53074e-001
2299	 2.1862500000e+002	 8.64642e-002
2300	 2.1868750000e+002	 1.72379e-001
2301	 2.1875000000e+002	 1.69666e-001
2302	 2.1881250000e+002	 9.93493e-002
2303	 2.1887500000e+002	 6.90048e-002
2304	 2.1893750000e+002	 8.10415e-002
2305	 2.1900000000e+002	 1.04372e-001
2306	 2.1906250000e+002	 1.19471e-001
2307	 2.1912500000e+002	 8.69608e-002
2308	 2.1918750000e+002	 9.13204e-002
2309	 2.1925000000e+002	 1.30546e-001
2310	 2.1931250000e+002	 9.82816e-002
2311	 2.1937500000e+002	 1.42894e-001
2312	 2.1943750000e+002	 1.34271e-001
2313	 2.1950000000e+002	 8.54894e-002
2314	 2.1956250000e+002	 6.79548e-002
2315	 2.1962500000e+002	 7.69366e-002
2316	 2.1968750000e+002	 1.04142e-001
2317	 2.1975000000e+002	 7.52593e-002
2318	 2.1981250000e+002	 1.18395e-001
2319	 2.1987500000e+002	 5.58970e-002
2320	 2.1993750000e+002	 6.56402e-002
2321	 2.2000000000e+002	 5.82795e-002
2322	 2.2006250000e+002	 7.14459e-002
2323	 2.2012500000e+002	 1.05168e-001
2324	 2.2018750000e+002	 1.34545e-001
2325	 2.2025000000e+002	 1.30705e-001
2326	 2.2031250000e+002	 8.69072e-002
2327	 2.2037500000e+002	 1.11446e-001
2328	 2.2043750000e+002	 1.09958e-001
2329	 2.2050000000e+002	 9.25591e-002
2330	 2.2056250000e+002	 5.09408e-002
2331	 2.2062500000e+002	 4.15897e-002
2332	 2.2068750000e+002	 5.44693e-002
2333	 2.2075000000e+002	 4.71961e-002
2334	 2.2081250000e+002	 7.91755e-002
2335	 2.2087500000e+002	 1.41360e-001
2336	 2.2093750000e+002	 1.16654e-001
2337	 2.2100000000e+002	 9.48582e-002
2338	 2.2106250000e+002	 1.50053e-001
2339	 2.2112500000e+002	 9.69211e-002
2340	 2.2118750000e+002	 3.26596e-002
2341	 2.2125000000e+002	 2.28959e-002
2342	 2.2131250000e+002	 4.46224e-002
2343	 2.2137500000e+002	 4.13986e-002
2344	 2.2143750000e+002	 4.56256e-002
2345	 2.2150000000e+002	 6.03842e-002
2346	 2.2156250000e+002	 6.52139e-002
2347	 2.2162500000e+002	 4.75294e-002
2348	 2.2168750000e+002	 5.78107e-002
2349	 2.2175000000e+002	 3.24386e-002
2350	 2.2181250000e+002	 3.86842e-002
2351	 2.2187500000e+002	 4.31262e-002
2352	 2.2193750000e+002	 5.01985e-002
2353	 2.2200000000e+002	 4.14648e-002
2354	 2.2206250000e+002	 2.65298e-002
2355	 2.2212500000e+002	 4.30666e-002
2356	 2.2218750000e+002	 6.68896e-002
2357	 2.2225000000e+002	 2.36791e-002
2358	 2.2231250000e+002	 2.20539e-002
2359	 2.2237500000e+002	 2.44412e-002
2360	 2.2243750000e+002	 2.46194e-002
2361	 2.2250000000e+002	 2.52541e-002
2362	 2.2256250000e+002	 2.41584e-002
2363	 2.2262500000e+002	 2.84020e-002
2364	 2.2268750000e+002	 3.06605e-002
2365	 2.2275000000e+002	 2.40819e-002
2366	 2.2281250000e+002	 1.69368e-002
2367	 2.2287500000e+002	 2.31262e-002
2368	 2.2293750000e+002	 2.91887e-002
2369	 2.2300000000e+002	 1.87756e-002
2370	 2.2306250000e+002	 1.70685e-002
2371	 2.2312500000e+002	 3.15517e-002
2372	 2.2318750000e+002	 4.57793e-002
2373	 2.2325000000e+002	 4.35219e-002
2374	 2.2331250000e+002	 2.98723e-002
2375	 2.2337500000e+002	 3.41826e-002
2376	 2.2343750000e+002	 3.02289e-002
2377	 2.2350000000e+002	 3.63953e-002
2378	 2.2356250000e+002	 3.76865e-002
2379	 2.2362500000e+002	 3.76069e-002
2380	 2.2368750000e+002	 5.03055e-002
2381	 2.2375000000e+002	 2.89074e-002
2382	 2.2381250000e+002	 1.09005e-002
2383	 2.2387500000e+002	 1.34380e-002
2384	 2.2393750000e+002	 3.78335e-002
2385	 2.2400000000e+002	 3.95624e-002
2386	 2.2406250000e+002	 2.62441e-002
2387	 2.2412500000e+002	 2.84462e-002
2388	 2.2418750000e+002	 4.37819e-002
2389	 2.2425000000e+002	 2.30651e-002
2390	 2.2431250000e+002	 1.51786e-002
2391	 2.2437500000e+002	 1.76816e-002
2392	 2.2443750000e+002	 1.64032e-002
2393	 2.2450000000e+002	 1.94542e-002
2394	 2.2456250000e+002	 2.11952e-002
2395	 2.2462500000e+002	 2.76282e-002
2396	 2.2468750000e+002	 3.23809e-002
2397	 2.2475000000e+002	 4.20448e-002
2398	 2.2481250000e+002	 6.37629e-002
2399	 2.2487500000e+002	 5.19123e-002
2400	 2.2493750000e+002	 1.32476e-002
2401	 2.2500000000e+002	 2.63999e-002
2402	 2.2506250000e+002	 3.76487e-002
2403	 2.2512500000e+002	 1.95964e-002
2404	 2.2518750000e+002	 1.65051e-002
2405	 2.2525000000e+002	 3.49260e-002
2406	 2.2531250000e+002	 2.87836e-002
2407	 2.2537500000e+002	 1.34350e-002
2408	 2.2543750000e+002	 1.73782e-002
2409	 2.2550000000e+002	 3.01682e-002
2410	 2.2556250000e+002	 2.44677e-002
2411	 2.2562500000e+002	 2.13570e-002
2412	 2.2568750000e+002	 2.79426e-002
2413	 2.2575000000e+002	 2.78450e-002
2414	 2.2581250000e+002	 2.65331e-002
2415	 2.2587500000e+002	 1.70554e-002
2416	 2.2593750000e+002	 2.51448e-002
2417	 2.2600000000e+002	 2.54451e-002
2418	 2.2606250000e+002	 3.51214e-002
2419	 2.2612500000e+002	 2.72748e-002
2420	 2.2618750000e+002	 1.96867e-002
2421	 2.2625000000e+002	 2.29936e-002
2422	 2.2631250000e+002	 2.42590e-002
2423	 2.2637500000e+002	 1.78868e-002
2424	 2.2643750000e+002	 2.10974e-002
2425	 2.2650000000e+002	 1.77650e-002
2426	 2.2656250000e+002	 3.37084e-002
2427	 2.2662500000e+002	 2.26916e-002
2428	 2.2668750000e+002	 1.05674e-002
2429	 2.2675000000e+002	 1.07850e-002
2430	 2.2681250000e+002	 7.65593e-003
2431	 2.2687500000e+002	 2.18577e-002
2432	 2.2693750000e+002	 4.58739e-002
2433	 2.2700000000e+002	 3.12095e-002
2434	 2.2706250000e+002	 1.54954e-002
2435	 2.2712500000e+002	 1.09576e-002
2436	 2.2718750000e+002	 1.98014e-002
2437	 2.2725000000e+002	 2.21531e-002
2438	 2.2731250000e+002	 1.80810e-002
2439	 2.2737500000e+002	 1.45477e-002
2440	 2.2743750000e+002	 1.55927e-002
2441	 2.2750000000e+002	 2.40349e-002
2442	 2.2756250000e+002	 1.50512e-002
2443	 2.2762500000e+002	 1.14747e-002
2444	 2.2768750000e+002	 2.52871e-002
2445	 2.2775000000e+002	 2.09913e-002
2446	 2.2781250000e+002	 1.57979e-002
2447	 2.2787500000e+002	 2.29780e-002
2448	 2.2793750000e+002	 2.34225e-002
2449	 2.2800000000e+002	 1.92931e-002
2450	 2.2806250000e+002	 1.25939e-002
2451	 2.2812500000e+002	 1.08983e-002
2452	 2.2818750000e+002	 1.57014e-002
2453	 2.2825000000e+002	 1.24684e-002
2454	 2.2831250000e+002	 1.97303e-002
2455	 2.2837500000e+002	 2.71736e-002
2456	 2.2843750000e+002	 2.13145e-002
2457	 2.2850000000e+002	 1.08175e-002
2458	 2.2856250000e+002	 1.18444e-002
2459	 2.2862500000e+002	 1.37783e-002
2460	 2.2868750000e+002	 1.65358e-002
2461	 2.2875000000e+002	 2.16221e-002
2462	 2.2881250000e+002	 2.05512e-002
2463	 2.2887500000e+002	 2.61402e-002
2464	 2.2893750000e+002	 1.51881e-002
2465	 2.2900000000e+002	 1.61560e-002
2466	 2.2906250000e+002	 1.27111e-002
2467	 2.2912500000e+002	 1.39462e-002
2468	 2.2918750000e+002	 1.36666e-002
2469	 2.2925000000e+002	 1.84926e-002
2470	 2.2931250000e+002	 1.65564e-002
2471	 2.2937500000e+002	 2.27290e-002
2472	 2.2943750000e+002	 1.34216e-002
2473	 2.2950000000e+002	 1.07686e-002
2474	 2.2956250000e+002	 9.28883e-003
2475	 2.2962500000e+002	 8.55289e-003
2476	 2.2968750000e+002	 6.20610e-003
2477	 2.2975000000e+002	 1.04879e-002
2478	 2.2981250000e+002	 1.47112e-002
2479	 2.2987500000e+002	 1.90662e-002
2480	 2.2993750000e+002	 2.42383e-002
2481	 2.3000000000e+002	 1.64769e-002
2482	 2.3006250000e+002	 1.57422e-002
2483	 2.3012500000e+002	 1.72421e-002
2484	 2.3018750000e+002	 1.68236e-002
2485	 2.3025000000e+002	 1.55713e-002
2486	 2.3031250000e+002	 1.53030e-002
2487	 2.3037500000e+002	 9.66589e-003
2488	 2.3043750000e+002	 1.08850e-002
2489	 2.3050000000e+002	 9.86635e-003
2490	 2.3056250000e+002	 3.81758e-003
2491	 2.3062500000e+002	 5.05556e-003
2492	 2.3068750000e+002	 6.60044e-003
2493	 2.3075000000e+002	 4.79727e-003
2494	 2.3081250000e+002	 5.99167e-003
2495	 2.3087500000e+002	 7.20910e-003
2496	 2.3093750000e+002	 9.64750e-003
2497	 2.3100000000e+002	 1.17071e-002
2498	 2.3106250000e+002	 9.52417e-003
2499	 2.3112500000e+002	 1.07645e-002
2500	 2.3118750000e+002	 1.02618e-002
2501	 2.3125000000e+002	 9.31675e-003
2502	 2.3131250000e+002	 7.23103e-003
2503	 2.3137500000e+002	 1.00907e-002
2504	 2.3143750000e+002	 1.68789e-002
2505	 2.3150000000e+002	 2.28495e-002
2506	 2.3156250000e+002	 1.14973e-002
2507	 2.3162500000e+002	 1.26140e-002
2508	 2.3168750000e+002	 1.93437e-002
2509	 2.3175000000e+002	 1.32758e-002
2510	 2.3181250000e+002	 9.97201e-003
2511	 2.3187500000e+002	 1.32939e-002
2512	 2.3193750000e+002	 1.07774e-002
2513	 2.3200000000e+002	 4.23842e-003
2514	 2.3206250000e+002	 3.05662e-003
2515	 2.3212500000e+002	 3.14196e-003
2516	 2.3218750000e+002	 6.49082e-003
2517	 2.3225000000e+002	 1.30408e-002
2518	 2.3231250000e+002	 1.41717e-002
2519	 2.3237500000e+002	 1.51270e-002
2520	 2.3243750000e+002	 9.66261e-003
2521	 2.3250000000e+002	 9.37547e-003
2522	 2.3256250000e+002	 1.35250e-002
2523	 2.3262500000e+002	 1.14575e-002
2524	 2.3268750000e+002	 8.80986e-003
2525	 2.3275000000e+002	 3.78093e-003
2526	 2.3281250000e+002	 4.32097e-003
2527	 2.3287500000e+002	 6.48303e-003
2528	 2.3293750000e+002	 9.20211e-003
2529	 2.3300000000e+002	 1.07350e-002
2530	 2.3306250000e+002	 4.39313e-003
2531	 2.3312500000e+002	 3.89436e-003
2532	 2.3318750000e+002	 7.99843e-003
2533	 2.3325000000e+002	 8.53696e-003
2534	 2.3331250000e+002	 1.22492e-002
2535	 2.3337500000e+002	 6.78572e-003
2536	 2.3343750000e+002	 1.22765e-002
2537	 2.3350000000e+002	 1.79590e-002
2538	 2.3356250000e+002	 1.35384e-002
2539	 2.3362500000e+002	 6.90901e-003
2540	 2.3368750000e+002	 5.36567e-003
2541	 2.3375000000e+002	 7.15161e-003
2542	 2.3381250000e+002	 7.66310e-003
2543	 2.3387500000e+002	 7.59217e-003
2544	 2.3393750000e+002	 8.95444e-003
2545	 2.3400000000e+002	 6.47692e-003
2546	 2.3406250000e+002	 6.40405e-003
2547	 2.3412500000e+002	 1.10813e-002
2548	 2.3418750000e+002	 7.96255e-003
2549	 2.3425000000e+002	 9.46049e-003
2550	 2.3431250000e+002	 8.96035e-003
2551	 2.3437500000e+002	 6.99397e-003
2552	 2.3443750000e+002	 6.82065e-003
2553	 2.3450000000e+002	 6.70737e-003
2554	 2.3456250000e+002	 1.00139e-002
2555	 2.3462500000e+002	 1.40577e-002
2556	 2.3468750000e+002	 1.09070e-002
2557	 2.3475000000e+002	 9.54933e-003
2558	 2.3481250000e+002	 1.11356e-002
2559	 2.3487500000e+002	 7.38487e-003
2560	 2.3493750000e+002	 1.06853e-002
2561	 2.3500000000e+002	 6.50082e-003
2562	 2.3506250000e+002	 8.42626e-003
2563	 2.3512500000e+002	 9.88512e-003
2564	 2.3518750000e+002	 6.18850e-003
2565	 2.3525000000e+002	 6.91411e-003
2566	 2.3531250000e+002	 7.76284e-003
2567	 2.3537500000e+002	 8.10128e-003
2568	 2.3543750000e+002	 1.06641e-002
2569	 2.3550000000e+002	 1.93512e-002
2570	 2.3556250000e+002	 1.99435e-002
2571	 2.3562500000e+002	 7.54889e-003
2572	 2.3568750000e+002	 3.24767e-003
2573	 2.3575000000e+002	 6.37876e-003
2574	 2.3581250000e+002	 1.16283e-002
2575	 2.3587500000e+002	 1.00714e-002
2576	 2.3593750000e+002	 6.75261e-003
2577	 2.3600000000e+002	 3.66187e-003
2578	 2.3606250000e+002	 3.44841e-003
2579	 2.3612500000e+002	 6.11683e-003
2580	 2.3618750000e+002	 1.13876e-002
2581	 2.3625000000e+002	 7.07769e-003
2582	 2.3631250000e+002	 8.04272e-003
2583	 2.3637500000e+002	 1.27686e-002
2584	 2.3643750000e+002	 1.04090e-002
2585	 2.3650000000e+002	 7.24791e-003
2586	 2.3656250000e+002	 8.96888e-003
2587	 2.3662500000e+002	 5.04243e-003
2588	 2.3668750000e+002	 7.18313e-003
2589	 2.3675000000e+002	 8.87560e-003
2590	 2.3681250000e+002	 9.09110e-003
2591	 2.3687500000e+002	 8.92101e-003
2592	 2.3693750000e+002	 1.18276e-002
2593	 2.3700000000e+002	 1.43887e-002
2594	 2.3706250000e+002	 9.71306e-003
2595	 2.3712500000e+002	 7.31845e-003
2596	 2.3718750000e+002	 1.02962e-002
2597	 2.3725000000e+002	 1.08019e-002
2598	 2.3731250000e+002	 7.42868e-003
2599	 2.3737500000e+002	 8.21919e-003
2600	 2.3743750000e+002	 1.01851e-002
2601	 2.3750000000e+002	 8.36749e-003
2602	 2.3756250000e+002	 5.93266e-003
2603	 2.3762500000e+002	 8.69534e-003
2604	 2.3768750000e+002	 1.11981e-002
2605	 2.3775000000e+002	 7.98280e-003
2606	 2.3781250000e+002	 9.56288e-003
2607	 2.3787500000e+002	 1.37758e-002
2608	 2.3793750000e+002	 8.15675e-003
2609	 2.3800000000e+002	 7.39273e-003
2610	 2.3806250000e+002	 8.15735e-003
2611	 2.3812500000e+002	 1.02222e-002
2612	 2.3818750000e+002	 7.35725e-003
2613	 2.3825000000e+002	 8.29047e-003
2614	 2.3831250000e+002	 5.96938e-003
2615	 2.3837500000e+002	 4.57148e-003
2616	 2.3843750000e+002	 4.27549e-003
2617	 2.3850000000e+002	 4.51061e-003
2618	 2.3856250000e+002	 5.93934e-003
2619	 2.3862500000e+002	 6.58683e-003
2620	 2.3868750000e+002	 8.04269e-003
2621	 2.3875000000e+002	 7.81374e-003
2622	 2.3881250000e+002	 9.95205e-003
2623	 2.3887500000e+002	 6.46878e-003
2624	 2.3893750000e+002	 7.38160e-003
2625	 2.3900000000e+002	 6.05494e-003
2626	 2.3906250000e+002	 1.00626e-002
2627	 2.3912500000e+002	 1.27976e-002
2628	 2.3918750000e+002	 1.14324e-002
2629	 2.3925000000e+002	 6.54057e-003
2630	 2.3931250000e+002	 5.71984e-003
2631	 2.3937500000e+002	 6.42592e-003
2632	 2.3943750000e+002	 8.60384e-003
2633	 2.3950000000e+002	 1.02770e-002
2634	 2.3956250000e+002	 7.31366e-003
2635	 2.3962500000e+002	 8.62321e-003
2636	 2.3968750000e+002	 9.76335e-003
2637	 2.3975000000e+002	 1.03076e-002
2638	 2.3981250000e+002	 1.40110e-002
2639	 2.3987500000e+002	 7.08431e-003
2640	 2.3993750000e+002	 1.34162e-002
2641	 2.4000000000e+002	 1.50777e-002
2642	 2.4006250000e+002	 7.62127e-003
2643	 2.4012500000e+002	 1.45901e-002
2644	 2.4018750000e+002	 9.76802e-003
2645	 2.4025000000e+002	 2.75564e-003
2646	 2.4031250000e+002	 5.10368e-003
2647	 2.4037500000e+002	 6.84535e-003
2648	 2.4043750000e+002	 7.50542e-003
2649	 2.4050000000e+002	 6.54031e-003
2650	 2.4056250000e+002	 8.34148e-003
2651	 2.4062500000e+002	 6.90722e-003
2652	 2.4068750000e+002	 5.85625e-003
2653	 2.4075000000e+002	 1.13923e-002
2654	 2.4081250000e+002	 1.15744e-002
2655	 2.4087500000e+002	 1.13933e-002
2656	 2.4093750000e+002	 1.32348e-002
2657	 2.4100000000e+002	 1.28746e-002
2658	 2.4106250000e+002	 9.08233e-003
2659	 2.4112500000e+002	 5.55294e-003
2660	 2.4118750000e+002	 5.13954e-003
2661	 2.4125000000e+002	 6.16543e-003
2662	 2.4131250000e+002	 7.56729e-003
2663	 2.4137500000e+002	 1.06673e-002
2664	 2.4143750000e+002	 1.09788e-002
2665	 2.4150000000e+002	 1.09797e-002
2666	 2.4156250000e+002	 6.97738e-003
2667	 2.4162500000e+002	 3.99929e-003
2668	 2.4168750000e+002	 5.99357e-003
2669	 2.4175000000e+002	 9.33157e-003
2670	 2.4181250000e+002	 5.73276e-003
2671	 2.4187500000e+002	 7.34836e-003
2672	 2.4193750000e+002	 8.95669e-003
2673	 2.4200000000e+002	 8.87167e-003
2674	 2.4206250000e+002	 6.77936e-003
2675	 2.4212500000e+002	 7.61439e-003
2676	 2.4218750000e+002	 9.61065e-003
2677	 2.4225000000e+002	 6.00164e-003
2678	 2.4231250000e+002	 4.92385e-003
2679	 2.4237500000e+002	 7.34950e-003
2680	 2.4243750000e+002	 9.54005e-003
2681	 2.4250000000e+002	 8.24834e-003
2682	 2.4256250000e+002	 6.92703e-003
2683	 2.4262500000e+002	 6.16394e-003
2684	 2.4268750000e+002	 4.35884e-003
2685	 2.4275000000e+002	 4.09643e-003
2686	 2.4281250000e+002	 6.00011e-003
2687	 2.4287500000e+002	 4.78880e-003
2688	 2.4293750000e+002	 4.72507e-003
2689	 2.4300000000e+002	 7.65416e-003
2690	 2.4306250000e+002	 1.32349e-002
2691	 2.4312500000e+002	 1.62879e-002
2692	 2.4318750000e+002	 8.82305e-003
2693	 2.4325000000e+002	 8.00718e-003
2694	 2.4331250000e+002	 5.26427e-003
2695	 2.4337500000e+002	 9.61250e-003
2696	 2.4343750000e+002	 1.29228e-002
2697	 2.4350000000e+002	 6.81538e-003
2698	 2.4356250000e+002	 8.35506e-003
2699	 2.4362500000e+002	 8.16223e-003
2700	 2.4368750000e+002	 7.92771e-003
2701	 2.4375000000e+002	 1.09353e-002
2702	 2.4381250000e+002	 8.45656e-003
2703	 2.4387500000e+002	 7.41399e-003
2704	 2.4393750000e+002	 4.65225e-003
2705	 2.4400000000e+002	 6.38481e-003
2706	 2.4406250000e+002	 1.11121e-002
2707	 2.4412500000e+002	 9.69790e-003
2708	 2.4418750000e+002	 6.75237e-003
2709	 2.4425000000e+002	 6.51083e-003
2710	 2.4431250000e+002	 1.09247e-002
2711	 2.4437500000e+002	 8.12173e-003
2712	 2.4443750000e+002	 9.90659e-003
2713	 2.4450000000e+002	 1.04336e-002
2714	 2.4456250000e+002	 1.03168e-002
2715	 2.4462500000e+002	 1.07858e-002
2716	 2.4468750000e+002	 9.42906e-003
2717	 2.4475000000e+002	 1.00535e-002
2718	 2.4481250000e+002	 7.18190e-003
2719	 2.4487500000e+002	 6.66640e-003
2720	 2.4493750000e+002	 1.28321e-002
2721	 2.4500000000e+002	 1.11546e-002
2722	 2.4506250000e+002	 1.19021e-002
2723	 2.4512500000e+002	 1.18097e-002
2724	 2.4518750000e+002	 1.54374e-002
2725	 2.4525000000e+002	 5.98424e-003
2726	 2.4531250000e+002	 4.49380e-003
2727	 2.4537500000e+002	 8.40285e-003
2728	 2.4543750000e+002	 1.13651e-002
2729	 2.4550000000e+002	 1.38937e-002
2730	 2.4556250000e+002	 1.15112e-002
2731	 2.4562500000e+002	 1.04988e-002
2732	 2.4568750000e+002	 1.57474e-002
2733	 2.4575000000e+002	 1.41745e-002
2734	 2.4581250000e+002	 9.87446e-003
2735	 2.4587500000e+002	 6.26224e-003
2736	 2.4593750000e+002	 7.19578e-003
2737	 2.4600000000e+002	 9.32975e-003
2738	 2.4606250000e+002	 7.44464e-003
2739	 2.4612500000e+002	 8.71144e-003
2740	 2.4618750000e+002	 8.76186e-003
2741	 2.4625000000e+002	 1.08484e-002
2742	 2.4631250000e+002	 1.08106e-002
2743	 2.4637500000e+002	 8.24151e-003
2744	 2.4643750000e+002	 4.98210e-003
2745	 2.4650000000e+002	 5.84303e-003
2746	 2.4656250000e+002	 9.53546e-003
2747	 2.4662500000e+002	 1.15584e-002
2748	 2.4668750000e+002	 7.51988e-003
2749	 2.4675000000e+002	 7.74650e-003
2750	 2.4681250000e+002	 7.79932e-003
2751	 2.4687500000e+002	 1.00316e-002
2752	 2.4693750000e+002	 1.00346e-002
2753	 2.4700000000e+002	 1.31502e-002
2754	 2.4706250000e+002	 1.52410e-002
2755	 2.4712500000e+002	 1.37005e-002
2756	 2.4718750000e+002	 9.60996e-003
2757	 2.4725000000e+002	 5.13306e-003
2758	 2.4731250000e+002	 8.69625e-003
2759	 2.4737500000e+002	 9.23233e-003
2760	 2.4743750000e+002	 1.23778e-002
2761	 2.4750000000e+002	 1.92070e-002
2762	 2.4756250000e+002	 1.05324e-002
2763	 2.4762500000e+002	 1.05341e-002
2764	 2.4768750000e+002	 1.06210e-002
2765	 2.4775000000e+002	 8.29398e-003
2766	 2.4781250000e+002	 8.29729e-003
2767	 2.4787500000e+002	 9.35764e-003
2768	 2.4793750000e+002	 4.93645e-003
2769	 2.4800000000e+002	 5.85241e-003
2770	 2.4806250000e+002	 6.33645e-003
2771	 2.4812500000e+002	 5.97624e-003
2772	 2.4818750000e+002	 6.59766e-003
2773	 2.4825000000e+002	 6.53316e-003
2774	 2.4831250000e+002	 5.63267e-003
2775	 2.4837500000e+002	 5.23545e-003
2776	 2.4843750000e+002	 4.24949e-003
2777	 2.4850000000e+002	 3.66315e-003
2778	 2.4856250000e+002	 7.31153e-003
2779	 2.4862500000e+002	 8.00804e-003
2780	 2.4868750000e+002	 1.25951e-002
2781	 2.4875000000e+002	 1.34523e-002
2782	 2.4881250000e+002	 6.01891e-003
2783	 2.4887500000e+002	 7.50773e-003
2784	 2.4893750000e+002	 1.14841e-002
2785	 2.4900000000e+002	 7.22306e-003
2786	 2.4906250000e+002	 1.24085e-002
2787	 2.4912500000e+002	 1.07309e-002
2788	 2.4918750000e+002	 5.03651e-003
2789	 2.4925000000e+002	 5.70208e-003
2790	 2.4931250000e+002	 7.66010e-003
2791	 2.4937500000e+002	 5.74653e-003
2792	 2.4943750000e+002	 8.05484e-003
2793	 2.4950000000e+002	 1.14198e-002
2794	 2.4956250000e+002	 8.50099e-003
2795	 2.4962500000e+002	 4.01794e-003
2796	 2.4968750000e+002	 5.78373e-003
2797	 2.4975000000e+002	 6.42595e-003
2798	 2.4981250000e+002	 7.00133e-003
2799	 2.4987500000e+002	 5.59227e-003
2800	 2.4993750000e+002	 9.60703e-003
2801	 2.5000000000e+002	 1.53535e-002
2802	 2.5006250000e+002	 1.43829e-002
2803	 2.5012500000e+002	 1.25853e-002
2804	 2.5018750000e+002	 1.47388e-002
2805	 2.5025000000e+002	 9.46342e-003
2806	 2.5031250000e+002	 1.00177e-002
2807	 2.5037500000e+002	 8.58486e-003
2808	 2.5043750000e+002	 1.22130e-002
2809	 2.5050000000e+002	 9.58748e-003
2810	 2.5056250000e+002	 1.49027e-002
2811	 2.5062500000e+002	 9.55415e-003
2812	 2.5068750000e+002	 8.04933e-003
2813	 2.5075000000e+002	 7.32777e-003
2814	 2.5081250000e+002	 9.12486e-003
2815	 2.5087500000e+002	 1.90387e-002
2816	 2.5093750000e+002	 1.03518e-002
2817	 2.5100000000e+002	 6.25394e-003
2818	 2.5106250000e+002	 1.20692e-002
2819	 2.5112500000e+002	 1.52737e-002
2820	 2.5118750000e+002	 9.91358e-003
2821	 2.5125000000e+002	 8.23173e-003
2822	 2.5131250000e+002	 1.51487e-002
2823	 2.5137500000e+002	 1.68765e-002
2824	 2.5143750000e+002	 1.16122e-002
2825	 2.5150000000e+002	 1.19074e-002
2826	 2.5156250000e+002	 8.68255e-003
2827	 2.5162500000e+002	 1.02076e-002
2828	 2.5168750000e+002	 1.14648e-002
2829	 2.5175000000e+002	 7.46301e-003
2830	 2.5181250000e+002	 9.60110e-003
2831	 2.5187500000e+002	 7.82544e-003
2832	 2.5193750000e+002	 1.14062e-002
2833	 2.5200000000e+002	 1.69735e-002
2834	 2.5206250000e+002	 1.47798e-002
2835	 2.5212500000e+002	 1.28147e-002
2836	 2.5218750000e+002	 1.50588e-002
2837	 2.5225000000e+002	 1.52286e-002
2838	 2.5231250000e+002	 2.22477e-002
2839	 2.5237500000e+002	 1.08700e-002
2840	 2.5243750000e+002	 1.46632e-002
2841	 2.5250000000e+002	 2.29682e-002
2842	 2.5256250000e+002	 1.38419e-002
2843	 2.5262500000e+002	 1.09617e-002
2844	 2.5268750000e+002	 1.31227e-002
2845	 2.5275000000e+002	 1.62146e-002
2846	 2.5281250000e+002	 1.13784e-002
2847	 2.5287500000e+002	 9.48750e-003
2848	 2.5293750000e+002	 1.54101e-002
2849	 2.5300000000e+002	 9.78735e-003
2850	 2.5306250000e+002	 1.96055e-002
2851	 2.5312500000e+002	 2.44321e-002
2852	 2.5318750000e+002	 1.45446e-002
2853	 2.5325000000e+002	 1.62625e-002
2854	 2.5331250000e+002	 1.76279e-002
2855	 2.5337500000e+002	 1.40069e-002
2856	 2.5343750000e+002	 1.18628e-002
2857	 2.5350000000e+002	 1.12317e-002
2858	 2.5356250000e+002	 1.63588e-002
2859	 2.5362500000e+002	 2.34531e-002
2860	 2.5368750000e+002	 2.14739e-002
2861	 2.5375000000e+002	 1.80392e-002
2862	 2.5381250000e+002	 1.61077e-002
2863	 2.5387500000e+002	 6.29177e-003
2864	 2.5393750000e+002	 5.80490e-003
2865	 2.5400000000e+002	 1.95219e-002
2866	 2.5406250000e+002	 1.65471e-002
2867	 2.5412500000e+002	 7.83118e-003
2868	 2.5418750000e+002	 5.68159e-003
2869	 2.5425000000e+002	 9.37642e-003
2870	 2.5431250000e+002	 2.11269e-002
2871	 2.5437500000e+002	 2.34528e-002
2872	 2.5443750000e+002	 2.03340e-002
2873	 2.5450000000e+002	 1.84040e-002
2874	 2.5456250000e+002	 1.52392e-002
2875	 2.5462500000e+002	 1.38976e-002
2876	 2.5468750000e+002	 1.02998e-002
2877	 2.5475000000e+002	 1.19582e-002
2878	 2.5481250000e+002	 2.87045e-002
2879	 2.5487500000e+002	 3.05196e-002
2880	 2.5493750000e+002	 1.75977e-002
2881	 2.5500000000e+002	 2.68600e-002
2882	 2.5506250000e+002	 1.71572e-002
2883	 2.5512500000e+002	 2.60589e-002
2884	 2.5518750000e+002	 1.71318e-002
2885	 2.5525000000e+002	 1.09212e-002
2886	 2.5531250000e+002	 1.46053e-002
2887	 2.5537500000e+002	 9.77275e-003
2888	 2.5543750000e+002	 7.60921e-003
2889	 2.5550000000e+002	 1.03680e-002
2890	 2.5556250000e+002	 1.78666e-002
2891	 2.5562500000e+002	 1.64749e-002
2892	 2.5568750000e+002	 2.47390e-002
2893	 2.5575000000e+002	 2.40248e-002
2894	 2.5581250000e+002	 2.41631e-002
2895	 2.5587500000e+002	 2.04391e-002
2896	 2.5593750000e+002	 1.04559e-002
2897	 2.5600000000e+002	 1.13372e-002
2898	 2.5606250000e+002	 1.56334e-002
2899	 2.5612500000e+002	 1.58629e-002
2900	 2.5618750000e+002	 1.36616e-002
2901	 2.5625000000e+002	 1.61719e-002
2902	 2.5631250000e+002	 2.30165e-002
2903	 2.5637500000e+002	 1.40602e-002
2904	 2.5643750000e+002	 1.79042e-002
2905	 2.5650000000e+002	 1.64960e-002
2906	 2.5656250000e+002	 2.65587e-002
2907	 2.5662500000e+002	 2.60132e-002
2908	 2.5668750000e+002	 2.20233e-002
2909	 2.5675000000e+002	 1.75181e-002
2910	 2.5681250000e+002	 1.46805e-002
2911	 2.5687500000e+002	 2.51397e-002
2912	 2.5693750000e+002	 2.99825e-002
2913	 2.5700000000e+002	 2.93074e-002
2914	 2.5706250000e+002	 3.16085e-002
2915	 2.5712500000e+002	 3.18738e-002
2916	 2.5718750000e+002	 1.63239e-002
2917	 2.5725000000e+002	 1.97757e-002
2918	 2.5731250000e+002	 2.40488e-002
2919	 2.5737500000e+002	 1.94282e-002
2920	 2.5743750000e+002	 1.91617e-002
2921	 2.5750000000e+002	 2.56542e-002
2922	 2.5756250000e+002	 1.43479e-002
2923	 2.5762500000e+002	 1.86209e-002
2924	 2.5768750000e+002	 2.54206e-002
2925	 2.5775000000e+002	 2.90238e-002
2926	 2.5781250000e+002	 3.43149e-002
2927	 2.5787500000e+002	 3.31479e-002
2928	 2.5793750000e+002	 3.20218e-002
2929	 2.5800000000e+002	 1.64349e-002
2930	 2.5806250000e+002	 9.40716e-003
2931	 2.5812500000e+002	 1.71196e-002
2932	 2.5818750000e+002	 3.90307e-002
2933	 2.5825000000e+002	 4.88164e-002
2934	 2.5831250000e+002	 4.32973e-002
2935	 2.5837500000e+002	 2.92648e-002
2936	 2.5843750000e+002	 2.95030e-002
2937	 2.5850000000e+002	 3.94658e-002
2938	 2.5856250000e+002	 4.44236e-002
2939	 2.5862500000e+002	 6.84093e-002
2940	 2.5868750000e+002	 5.48077e-002
2941	 2.5875000000e+002	 2.81928e-002
2942	 2.5881250000e+002	 3.61652e-002
2943	 2.5887500000e+002	 4.46388e-002
2944	 2.5893750000e+002	 3.64131e-002
2945	 2.5900000000e+002	 3.46354e-002
2946	 2.5906250000e+002	 2.57532e-002
2947	 2.5912500000e+002	 4.88939e-002
2948	 2.5918750000e+002	 7.78534e-002
2949	 2.5925000000e+002	 6.27262e-002
2950	 2.5931250000e+002	 4.38601e-002
2951	 2.5937500000e+002	 4.51226e-002
2952	 2.5943750000e+002	 3.63606e-002
2953	 2.5950000000e+002	 3.03484e-002
2954	 2.5956250000e+002	 2.72739e-002
2955	 2.5962500000e+002	 2.30199e-002
2956	 2.5968750000e+002	 3.46072e-002
2957	 2.5975000000e+002	 3.97562e-002
2958	 2.5981250000e+002	 5.09177e-002
2959	 2.5987500000e+002	 7.92718e-002
2960	 2.5993750000e+002	 6.39858e-002
2961	 2.6000000000e+002	 7.99031e-002
2962	 2.6006250000e+002	 9.34891e-002
2963	 2.6012500000e+002	 6.49597e-002
2964	 2.6018750000e+002	 2.31636e-002
2965	 2.6025000000e+002	 3.52362e-002
2966	 2.6031250000e+002	 3.57111e-002
2967	 2.6037500000e+002	 5.44767e-002
2968	 2.6043750000e+002	 4.05400e-002
2969	 2.6050000000e+002	 3.82284e-002
2970	 2.6056250000e+002	 3.88832e-002
2971	 2.6062500000e+002	 3.73522e-002
2972	 2.6068750000e+002	 6.59196e-002
2973	 2.6075000000e+002	 6.95080e-002
2974	 2.6081250000e+002	 1.01151e-001
2975	 2.6087500000e+002	 7.18222e-002
2976	 2.6093750000e+002	 4.27187e-002
2977	 2.6100000000e+002	 4.49354e-002
2978	 2.6106250000e+002	 4.72046e-002
2979	 2.6112500000e+002	 3.19089e-002
2980	 2.6118750000e+002	 4.49398e-002
2981	 2.6125000000e+002	 8.31815e-002
2982	 2.6131250000e+002	 8.20448e-002
2983	 2.6137500000e+002	 3.57826e-002
2984	 2.6143750000e+002	 4.86539e-002
2985	 2.6150000000e+002	 8.66291e-002
2986	 2.6156250000e+002	 7.08433e-002
2987	 2.6162500000e+002	 5.80158e-002
2988	 2.6168750000e+002	 6.11368e-002
2989	 2.6175000000e+002	 6.46814e-002
2990	 2.6181250000e+002	 7.12370e-002
2991	 2.6187500000e+002	 6.00048e-002
2992	 2.6193750000e+002	 4.83069e-002
2993	 2.6200000000e+002	 3.28926e-002
2994	 2.6206250000e+002	 4.65528e-002
2995	 2.6212500000e+002	 7.39259e-002
2996	 2.6218750000e+002	 7.14473e-002
2997	 2.6225000000e+002	 8.75564e-002
2998	 2.6231250000e+002	 1.41087e-001
2999	 2.6237500000e+002	 7.75857e-002
3000	 2.6243750000e+002	 3.82232e-002
3001	 2.6250000000e+002	 1.04339e-001
3002	 2.6256250000e+002	 1.90218e-001
3003	 2.6262500000e+002	 1.42650e-001
3004	 2.6268750000e+002	 9.05367e-002
3005	 2.6275000000e+002	 1.01170e-001
3006	 2.6281250000e+002	 1.61479e-001
3007	 2.6287500000e+002	 9.16580e-002
3008	 2.6293750000e+002	 6.93635e-002
3009	 2.6300000000e+002	 7.84532e-002
3010	 2.6306250000e+002	 1.11472e-001
3011	 2.6312500000e+002	 2.30492e-001
3012	 2.6318750000e+002	 2.12206e-001
3013	 2.6325000000e+002	 1.00728e-001
3014	 2.6331250000e+002	 5.06798e-002
3015	 2.6337500000e+002	 7.58652e-002
3016	 2.6343750000e+002	 9.64159e-002
3017	 2.6350000000e+002	 8.38942e-002
3018	 2.6356250000e+002	 4.24740e-002
3019	 2.6362500000e+002	 8.52481e-002
3020	 2.6368750000e+002	 1.52819e-001
3021	 2.6375000000e+002	 1.06167e-001
3022	 2.6381250000e+002	 1.84632e-001
3023	 2.6387500000e+002	 2.38264e-001
3024	 2.6393750000e+002	 2.32907e-001
3025	 2.6400000000e+002	 1.92830e-001
3026	 2.6406250000e+002	 1.17024e-001
3027	 2.6412500000e+002	 1.09773e-001
3028	 2.6418750000e+002	 1.63854e-001
3029	 2.6425000000e+002	 1.83110e-001
3030	 2.6431250000e+002	 2.22844e-001
3031	 2.6437500000e+002	 1.14215e-001
3032	 2.6443750000e+002	 8.03204e-002
3033	 2.6450000000e+002	 1.58390e-001
3034	 2.6456250000e+002	 2.46703e-001
3035	 2.6462500000e+002	 2.16755e-001
3036	 2.6468750000e+002	 2.45453e-001
3037	 2.6475000000e+002	 1.55230e-001
3038	 2.6481250000e+002	 3.11614e-001
3039	 2.6487500000e+002	 4.84146e-001
3040	 2.6493750000e+002	 2.63945e-001
3041	 2.6500000000e+002	 2.38928e-001
3042	 2.6506250000e+002	 1.23353e-001
3043	 2.6512500000e+002	 1.62482e-001
3044	 2.6518750000e+002	 1.35525e-001
3045	 2.6525000000e+002	 1.00167e-001
3046	 2.6531250000e+002	 1.20225e-001
3047	 2.6537500000e+002	 1.90318e-001
3048	 2.6543750000e+002	 1.27462e-001
3049	 2.6550000000e+002	 1.59052e-001
3050	 2.6556250000e+002	 2.23837e-001
3051	 2.6562500000e+002	 2.25819e-001
3052	 2.6568750000e+002	 1.52605e-001
3053	 2.6575000000e+002	 1.36389e-001
3054	 2.6581250000e+002	 1.38040e-001
3055	 2.6587500000e+002	 1.40685e-001
3056	 2.6593750000e+002	 2.67696e-001
3057	 2.6600000000e+002	 3.12774e-001
3058	 2.6606250000e+002	 2.77447e-001
3059	 2.6612500000e+002	 3.18765e-001
3060	 2.6618750000e+002	 3.41570e-001
3061	 2.6625000000e+002	 2.78852e-001
3062	 2.6631250000e+002	 3.60050e-001
3063	 2.6637500000e+002	 3.42909e-001
3064	 2.6643750000e+002	 3.43923e-001
3065	 2.6650000000e+002	 3.99393e-001
3066	 2.6656250000e+002	 3.13943e-001
3067	 2.6662500000e+002	 5.12860e-001
3068	 2.6668750000e+002	 3.50135e-001
3069	 2.6675000000e+002	 2.74038e-001
3070	 2.6681250000e+002	 3.59706e-001
3071	 2.6687500000e+002	 3.08345e-001
3072	 2.6693750000e+002	 1.89757e-001
3073	 2.6700000000e+002	 2.72163e-001
3074	 2.6706250000e+002	 2.99456e-001
3075	 2.6712500000e+002	 2.52499e-001
3076	 2.6718750000e+002	 3.30617e-001
3077	 2.6725000000e+002	 3.54608e-001
3078	 2.6731250000e+002	 2.32311e-001
3079	 2.6737500000e+002	 2.47886e-001
3080	 2.6743750000e+002	 4.58392e-001
3081	 2.6750000000e+002	 3.51963e-001
3082	 2.6756250000e+002	 3.26327e-001
3083	 2.6762500000e+002	 4.79161e-001
3084	 2.6768750000e+002	 5.77644e-001
3085	 2.6775000000e+002	 4.08902e-001
3086	 2.6781250000e+002	 2.02831e-001
3087	 2.6787500000e+002	 2.19369e-001
3088	 2.6793750000e+002	 1.53291e-001
3089	 2.6800000000e+002	 1.75477e-001
3090	 2.6806250000e+002	 1.67445e-001
3091	 2.6812500000e+002	 2.02559e-001
3092	 2.6818750000e+002	 3.55762e-001
3093	 2.6825000000e+002	 2.97468e-001
3094	 2.6831250000e+002	 1.74022e-001
3095	 2.6837500000e+002	 3.86578e-001
3096	 2.6843750000e+002	 3.93387e-001
3097	 2.6850000000e+002	 2.46425e-001
3098	 2.6856250000e+002	 1.85613e-001
3099	 2.6862500000e+002	 3.16255e-001
3100	 2.6868750000e+002	 3.76641e-001
3101	 2.6875000000e+002	 2.60119e-001
3102	 2.6881250000e+002	 1.89761e-001
3103	 2.6887500000e+002	 1.61667e-001
3104	 2.6893750000e+002	 2.42737e-001
3105	 2.6900000000e+002	 2.67599e-001
3106	 2.6906250000e+002	 1.71153e-001
3107	 2.6912500000e+002	 2.01875e-001
3108	 2.6918750000e+002	 2.91545e-001
3109	 2.6925000000e+002	 2.09730e-001
3110	 2.6931250000e+002	 1.82487e-001
3111	 2.6937500000e+002	 1.35467e-001
3112	 2.6943750000e+002	 9.53452e-002
3113	 2.6950000000e+002	 1.34567e-001
3114	 2.6956250000e+002	 1.06141e-001
3115	 2.6962500000e+002	 9.54907e-002
3116	 2.6968750000e+002	 1.09772e-001
3117	 2.6975000000e+002	 8.62170e-002
3118	 2.6981250000e+002	 7.98124e-002
3119	 2.6987500000e+002	 1.16357e-001
3120	 2.6993750000e+002	 1.35029e-001
3121	 2.7000000000e+002	 1.63004e-001
3122	 2.7006250000e+002	 1.51960e-001
3123	 2.7012500000e+002	 1.69835e-001
3124	 2.7018750000e+002	 1.19640e-001
3125	 2.7025000000e+002	 7.52309e-002
3126	 2.7031250000e+002	 5.08787e-002
3127	 2.7037500000e+002	 7.66519e-002
3128	 2.7043750000e+002	 6.38926e-002
3129	 2.7050000000e+002	 7.43235e-002
3130	 2.7056250000e+002	 4.77989e-002
3131	 2.7062500000e+002	 3.80578e-002
3132	 2.7068750000e+002	 5.39149e-002
3133	 2.7075000000e+002	 3.90889e-002
3134	 2.7081250000e+002	 5.13299e-002
3135	 2.7087500000e+002	 5.89125e-002
3136	 2.7093750000e+002	 9.63426e-002
3137	 2.7100000000e+002	 1.25869e-001
3138	 2.7106250000e+002	 1.01826e-001
3139	 2.7112500000e+002	 1.54661e-001
3140	 2.7118750000e+002	 1.35937e-001
3141	 2.7125000000e+002	 8.04914e-002
3142	 2.7131250000e+002	 5.84621e-002
3143	 2.7137500000e+002	 8.02214e-002
3144	 2.7143750000e+002	 6.24469e-002
3145	 2.7150000000e+002	 5.07751e-002
3146	 2.7156250000e+002	 5.36163e-002
3147	 2.7162500000e+002	 7.70012e-002
3148	 2.7168750000e+002	 5.79590e-002
3149	 2.7175000000e+002	 4.96257e-002
3150	 2.7181250000e+002	 5.94180e-002
3151	 2.7187500000e+002	 8.15666e-002
3152	 2.7193750000e+002	 6.31252e-002
3153	 2.7200000000e+002	 5.10604e-002
3154	 2.7206250000e+002	 4.49825e-002
3155	 2.7212500000e+002	 2.60165e-002
3156	 2.7218750000e+002	 3.49900e-002
3157	 2.7225000000e+002	 3.52086e-002
3158	 2.7231250000e+002	 5.21169e-002
3159	 2.7237500000e+002	 8.28264e-002
3160	 2.7243750000e+002	 6.31395e-002
3161	 2.7250000000e+002	 4.39788e-002
3162	 2.7256250000e+002	 3.27896e-002
3163	 2.7262500000e+002	 3.03197e-002
3164	 2.7268750000e+002	 4.68947e-002
3165	 2.7275000000e+002	 3.29991e-002
3166	 2.7281250000e+002	 4.79653e-002
3167	 2.7287500000e+002	 5.75413e-002
3168	 2.7293750000e+002	 6.91424e-002
3169	 2.7300000000e+002	 7.95173e-002
3170	 2.7306250000e+002	 5.18780e-002
3171	 2.7312500000e+002	 2.87369e-002
3172	 2.7318750000e+002	 2.87025e-002
3173	 2.7325000000e+002	 3.23554e-002
3174	 2.7331250000e+002	 4.01884e-002
3175	 2.7337500000e+002	 2.89987e-002
3176	 2.7343750000e+002	 3.75410e-002
3177	 2.7350000000e+002	 4.62745e-002
3178	 2.7356250000e+002	 7.90661e-002
3179	 2.7362500000e+002	 9.39715e-002
3180	 2.7368750000e+002	 3.79220e-002
3181	 2.7375000000e+002	 4.53360e-002
3182	 2.7381250000e+002	 6.30360e-002
3183	 2.7387500000e+002	 4.24080e-002
3184	 2.7393750000e+002	 2.38216e-002
3185	 2.7400000000e+002	 1.48304e-002
3186	 2.7406250000e+002	 2.84457e-002
3187	 2.7412500000e+002	 2.26974e-002
3188	 2.7418750000e+002	 2.40266e-002
3189	 2.7425000000e+002	 2.81671e-002
3190	 2.7431250000e+002	 1.68194e-002
3191	 2.7437500000e+002	 3.45455e-002
3192	 2.7443750000e+002	 9.02276e-002
3193	 2.7450000000e+002	 8.23162e-002
3194	 2.7456250000e+002	 4.07589e-002
3195	 2.7462500000e+002	 3.56239e-002
3196	 2.7468750000e+002	 3.49165e-002
3197	 2.7475000000e+002	 3.32884e-002
3198	 2.7481250000e+002	 2.19169e-002
3199	 2.7487500000e+002	 1.87967e-002
3200	 2.7493750000e+002	 2.02252e-002
3201	 2.7500000000e+002	 2.51452e-002
TagsBegin:	 	 
OverLoad:	 	False
AverageNumber: []	 	 7.10000e+001
OverLoadRatio: []	 	 1.19209e-007
TagsEnd:	 	 
TagScalesBegin:	 	 
TagScalesEnd:	 	 
