Header Size:	 78	 
Pulse Version:	 42	 
Decimal Symbol:	.	 
Date Format:	dd-MM-yyyy	 
Time Format:	HH:mm:ss:mmm	 
Data Type:	Real	 
Slice:	False	 
Z-Axis type:	Linear	 
Z-Axis size:	1	 
Z-Axis unit:	 	 
Z-Axis first value:	 0.0000000000e+000	 
Z-Axis delta:	 1.0000000000e+000	 
X-Axis type:	Linear	 
X-Axis size:	3201	 
X-Axis unit:	Hz	 
X-Axis first value:	 7.5000000000e+001	 
X-Axis delta:	 6.2500000000e-002	 
	 	 
AmplitudeUnit:	Pa	 
Analyzer:	FFT_Spectrum_Averaging	 
AnalyzerName:	FFT Analyzer	 
	 	 
	 	 
Bipolar:	False	 
CenterFrequency:	 1.7500000000e+002	 
	 	 
	 	 
	 	 
	 	 
dBReference:	 4.0000000000e-010	 
	 	 
	 	 
	 	 
Domain:	1	 
Function:	Autospectrum	 
	 	 
InputRange:	 2.2376582278e+002	 
	 	 
	 	 
MultiBufferName:	Input	 
NBW:	 1.5000000000e+000	 
	 	 
OverlapFailed:	False	 
Overrun:	False	 
Power:	True	 
PowerUnit:	Pa²	 
	 	 
RecordLength:	 1.6000000000e+001	 
ReducedSize:	True	 
	 	 
	 	 
	 	 
	 	 
	 	 
SamplingRatio:	 1.2800000000e+000	 
Signal:	p_B_source	 
	 	 
SignalUnit:	Pa	 
	 	 
	 	 
	 	 
Title:	Autospectrum(p_B_source) - Input	 
Title1:	Working : Input : Input : FFT Analyzer	 
	 	 
	 	 
Weight:	0	 
ZoomOn:	True	 
	 	 
TemplateName:	Working	 
MeasurementName:	Input	 
MeasurementSlice:	False	 
	 	 
DeltaFrequency:	 6.2500000000e-002	 
	 	 
EnvelopeOn:	False	 
	 	 
	 	 
	 	 
Z-index:	 	1
Date:	 	05-03-2025
Time:	 	11:59:19:994
Relative time:	 	 0.00000e+000
Z-axis:	 	 0.0000000000e+000
1	 7.5000000000e+001	 7.44981e-004
2	 7.5062500000e+001	 5.27501e-004
3	 7.5125000000e+001	 1.06820e-003
4	 7.5187500000e+001	 1.73935e-003
5	 7.5250000000e+001	 1.21448e-003
6	 7.5312500000e+001	 7.85990e-004
7	 7.5375000000e+001	 1.26563e-003
8	 7.5437500000e+001	 1.34879e-003
9	 7.5500000000e+001	 1.10947e-003
10	 7.5562500000e+001	 7.97440e-004
11	 7.5625000000e+001	 1.12810e-003
12	 7.5687500000e+001	 1.41786e-003
13	 7.5750000000e+001	 2.80610e-003
14	 7.5812500000e+001	 2.47811e-003
15	 7.5875000000e+001	 1.14443e-003
16	 7.5937500000e+001	 2.77784e-003
17	 7.6000000000e+001	 2.36146e-003
18	 7.6062500000e+001	 8.79149e-004
19	 7.6125000000e+001	 9.49853e-004
20	 7.6187500000e+001	 4.65850e-004
21	 7.6250000000e+001	 5.42063e-004
22	 7.6312500000e+001	 1.00606e-003
23	 7.6375000000e+001	 1.32974e-003
24	 7.6437500000e+001	 1.59784e-003
25	 7.6500000000e+001	 1.13227e-003
26	 7.6562500000e+001	 7.27800e-004
27	 7.6625000000e+001	 8.10556e-004
28	 7.6687500000e+001	 7.74131e-004
29	 7.6750000000e+001	 1.04331e-003
30	 7.6812500000e+001	 7.99104e-004
31	 7.6875000000e+001	 9.06750e-004
32	 7.6937500000e+001	 8.11159e-004
33	 7.7000000000e+001	 3.88989e-004
34	 7.7062500000e+001	 2.82839e-004
35	 7.7125000000e+001	 4.79882e-004
36	 7.7187500000e+001	 8.06577e-004
37	 7.7250000000e+001	 1.24857e-003
38	 7.7312500000e+001	 2.05956e-003
39	 7.7375000000e+001	 8.15403e-004
40	 7.7437500000e+001	 1.11590e-003
41	 7.7500000000e+001	 6.43490e-004
42	 7.7562500000e+001	 9.87756e-005
43	 7.7625000000e+001	 8.63301e-005
44	 7.7687500000e+001	 3.45092e-004
45	 7.7750000000e+001	 1.48083e-003
46	 7.7812500000e+001	 1.10713e-003
47	 7.7875000000e+001	 7.80670e-004
48	 7.7937500000e+001	 5.85343e-004
49	 7.8000000000e+001	 2.20889e-004
50	 7.8062500000e+001	 2.76696e-004
51	 7.8125000000e+001	 8.69522e-004
52	 7.8187500000e+001	 1.34283e-003
53	 7.8250000000e+001	 1.30296e-003
54	 7.8312500000e+001	 1.12240e-003
55	 7.8375000000e+001	 1.84052e-003
56	 7.8437500000e+001	 1.33489e-003
57	 7.8500000000e+001	 1.14714e-003
58	 7.8562500000e+001	 8.47311e-004
59	 7.8625000000e+001	 8.11290e-004
60	 7.8687500000e+001	 5.91533e-004
61	 7.8750000000e+001	 6.73703e-004
62	 7.8812500000e+001	 7.11349e-004
63	 7.8875000000e+001	 7.35887e-004
64	 7.8937500000e+001	 3.61664e-004
65	 7.9000000000e+001	 2.44151e-004
66	 7.9062500000e+001	 4.94032e-004
67	 7.9125000000e+001	 2.30620e-004
68	 7.9187500000e+001	 7.06840e-004
69	 7.9250000000e+001	 1.46469e-003
70	 7.9312500000e+001	 4.28881e-004
71	 7.9375000000e+001	 5.37015e-004
72	 7.9437500000e+001	 6.98509e-004
73	 7.9500000000e+001	 1.12296e-003
74	 7.9562500000e+001	 3.52554e-004
75	 7.9625000000e+001	 1.50713e-003
76	 7.9687500000e+001	 3.81262e-003
77	 7.9750000000e+001	 2.15217e-003
78	 7.9812500000e+001	 8.85761e-004
79	 7.9875000000e+001	 8.57602e-004
80	 7.9937500000e+001	 6.43069e-004
81	 8.0000000000e+001	 5.84450e-004
82	 8.0062500000e+001	 6.54238e-004
83	 8.0125000000e+001	 8.94624e-004
84	 8.0187500000e+001	 1.49690e-003
85	 8.0250000000e+001	 1.15788e-003
86	 8.0312500000e+001	 5.49461e-004
87	 8.0375000000e+001	 4.72757e-004
88	 8.0437500000e+001	 9.72562e-004
89	 8.0500000000e+001	 2.32194e-003
90	 8.0562500000e+001	 1.24001e-003
91	 8.0625000000e+001	 1.36778e-003
92	 8.0687500000e+001	 1.24797e-003
93	 8.0750000000e+001	 1.24728e-003
94	 8.0812500000e+001	 1.30301e-003
95	 8.0875000000e+001	 2.56466e-003
96	 8.0937500000e+001	 1.87374e-003
97	 8.1000000000e+001	 3.86498e-004
98	 8.1062500000e+001	 3.97220e-004
99	 8.1125000000e+001	 6.99088e-004
100	 8.1187500000e+001	 3.11769e-004
101	 8.1250000000e+001	 6.08688e-004
102	 8.1312500000e+001	 5.86480e-004
103	 8.1375000000e+001	 5.71969e-004
104	 8.1437500000e+001	 5.93970e-004
105	 8.1500000000e+001	 1.25778e-003
106	 8.1562500000e+001	 1.81744e-003
107	 8.1625000000e+001	 1.48313e-003
108	 8.1687500000e+001	 1.15052e-003
109	 8.1750000000e+001	 1.71953e-003
110	 8.1812500000e+001	 1.94972e-003
111	 8.1875000000e+001	 2.10421e-003
112	 8.1937500000e+001	 1.08289e-003
113	 8.2000000000e+001	 6.65066e-004
114	 8.2062500000e+001	 1.28328e-003
115	 8.2125000000e+001	 2.24340e-003
116	 8.2187500000e+001	 2.20672e-003
117	 8.2250000000e+001	 1.95176e-003
118	 8.2312500000e+001	 3.10465e-003
119	 8.2375000000e+001	 2.49457e-003
120	 8.2437500000e+001	 1.42826e-003
121	 8.2500000000e+001	 7.38608e-004
122	 8.2562500000e+001	 1.67457e-003
123	 8.2625000000e+001	 1.24282e-003
124	 8.2687500000e+001	 6.44961e-004
125	 8.2750000000e+001	 1.14326e-003
126	 8.2812500000e+001	 1.82015e-003
127	 8.2875000000e+001	 2.15371e-003
128	 8.2937500000e+001	 5.51215e-004
129	 8.3000000000e+001	 8.58050e-004
130	 8.3062500000e+001	 6.84774e-004
131	 8.3125000000e+001	 4.01697e-004
132	 8.3187500000e+001	 9.67922e-004
133	 8.3250000000e+001	 6.63813e-004
134	 8.3312500000e+001	 9.75351e-004
135	 8.3375000000e+001	 1.67326e-003
136	 8.3437500000e+001	 1.97557e-003
137	 8.3500000000e+001	 9.30662e-004
138	 8.3562500000e+001	 5.31770e-004
139	 8.3625000000e+001	 1.01432e-003
140	 8.3687500000e+001	 1.69762e-003
141	 8.3750000000e+001	 8.15174e-004
142	 8.3812500000e+001	 9.50306e-004
143	 8.3875000000e+001	 1.32434e-003
144	 8.3937500000e+001	 1.59645e-003
145	 8.4000000000e+001	 9.91800e-004
146	 8.4062500000e+001	 2.75875e-004
147	 8.4125000000e+001	 5.05671e-004
148	 8.4187500000e+001	 7.58832e-004
149	 8.4250000000e+001	 1.59663e-003
150	 8.4312500000e+001	 2.40179e-003
151	 8.4375000000e+001	 6.46631e-004
152	 8.4437500000e+001	 6.80435e-004
153	 8.4500000000e+001	 6.24744e-004
154	 8.4562500000e+001	 8.74042e-004
155	 8.4625000000e+001	 6.41941e-004
156	 8.4687500000e+001	 1.92921e-003
157	 8.4750000000e+001	 1.43455e-003
158	 8.4812500000e+001	 2.02320e-003
159	 8.4875000000e+001	 2.10933e-003
160	 8.4937500000e+001	 1.28390e-003
161	 8.5000000000e+001	 9.58300e-004
162	 8.5062500000e+001	 1.37027e-003
163	 8.5125000000e+001	 1.28736e-003
164	 8.5187500000e+001	 1.21795e-003
165	 8.5250000000e+001	 4.48871e-004
166	 8.5312500000e+001	 1.79347e-004
167	 8.5375000000e+001	 1.05875e-003
168	 8.5437500000e+001	 1.22259e-003
169	 8.5500000000e+001	 3.62190e-004
170	 8.5562500000e+001	 2.48673e-004
171	 8.5625000000e+001	 3.78006e-004
172	 8.5687500000e+001	 4.00466e-004
173	 8.5750000000e+001	 5.73093e-004
174	 8.5812500000e+001	 7.48973e-004
175	 8.5875000000e+001	 2.40069e-004
176	 8.5937500000e+001	 4.52309e-004
177	 8.6000000000e+001	 5.89813e-004
178	 8.6062500000e+001	 4.51577e-004
179	 8.6125000000e+001	 4.69058e-004
180	 8.6187500000e+001	 7.75280e-004
181	 8.6250000000e+001	 6.93223e-004
182	 8.6312500000e+001	 7.03544e-004
183	 8.6375000000e+001	 9.31658e-004
184	 8.6437500000e+001	 7.26365e-004
185	 8.6500000000e+001	 1.53055e-003
186	 8.6562500000e+001	 2.95379e-003
187	 8.6625000000e+001	 1.95080e-003
188	 8.6687500000e+001	 1.06053e-003
189	 8.6750000000e+001	 1.08233e-003
190	 8.6812500000e+001	 9.64043e-004
191	 8.6875000000e+001	 7.05178e-004
192	 8.6937500000e+001	 5.87714e-004
193	 8.7000000000e+001	 7.39195e-004
194	 8.7062500000e+001	 9.50037e-004
195	 8.7125000000e+001	 8.52827e-004
196	 8.7187500000e+001	 2.84247e-003
197	 8.7250000000e+001	 2.01215e-003
198	 8.7312500000e+001	 1.47432e-003
199	 8.7375000000e+001	 1.56550e-003
200	 8.7437500000e+001	 1.45938e-003
201	 8.7500000000e+001	 1.48452e-003
202	 8.7562500000e+001	 2.29179e-003
203	 8.7625000000e+001	 3.33338e-003
204	 8.7687500000e+001	 2.49495e-003
205	 8.7750000000e+001	 8.11416e-004
206	 8.7812500000e+001	 3.91545e-004
207	 8.7875000000e+001	 2.26350e-003
208	 8.7937500000e+001	 3.23923e-003
209	 8.8000000000e+001	 2.53054e-003
210	 8.8062500000e+001	 8.14473e-004
211	 8.8125000000e+001	 2.17385e-003
212	 8.8187500000e+001	 2.13257e-003
213	 8.8250000000e+001	 1.01531e-003
214	 8.8312500000e+001	 2.71514e-003
215	 8.8375000000e+001	 1.49558e-003
216	 8.8437500000e+001	 7.49762e-004
217	 8.8500000000e+001	 5.95886e-004
218	 8.8562500000e+001	 2.07191e-003
219	 8.8625000000e+001	 2.28272e-003
220	 8.8687500000e+001	 8.71590e-004
221	 8.8750000000e+001	 9.56528e-004
222	 8.8812500000e+001	 1.79073e-003
223	 8.8875000000e+001	 2.28089e-003
224	 8.8937500000e+001	 1.24111e-003
225	 8.9000000000e+001	 8.92891e-004
226	 8.9062500000e+001	 1.08388e-003
227	 8.9125000000e+001	 8.43682e-004
228	 8.9187500000e+001	 1.31138e-003
229	 8.9250000000e+001	 1.35437e-003
230	 8.9312500000e+001	 1.67140e-003
231	 8.9375000000e+001	 1.37464e-003
232	 8.9437500000e+001	 1.28188e-003
233	 8.9500000000e+001	 2.59209e-003
234	 8.9562500000e+001	 4.58489e-003
235	 8.9625000000e+001	 2.23874e-003
236	 8.9687500000e+001	 1.31273e-003
237	 8.9750000000e+001	 6.49491e-004
238	 8.9812500000e+001	 7.46005e-004
239	 8.9875000000e+001	 1.46052e-003
240	 8.9937500000e+001	 9.51173e-004
241	 9.0000000000e+001	 8.32498e-004
242	 9.0062500000e+001	 1.22934e-003
243	 9.0125000000e+001	 7.68308e-004
244	 9.0187500000e+001	 7.01332e-004
245	 9.0250000000e+001	 1.02863e-003
246	 9.0312500000e+001	 1.12038e-003
247	 9.0375000000e+001	 9.90888e-004
248	 9.0437500000e+001	 1.47316e-003
249	 9.0500000000e+001	 2.35952e-003
250	 9.0562500000e+001	 2.06724e-003
251	 9.0625000000e+001	 2.08805e-003
252	 9.0687500000e+001	 6.21886e-004
253	 9.0750000000e+001	 1.51401e-003
254	 9.0812500000e+001	 1.44828e-003
255	 9.0875000000e+001	 1.08551e-003
256	 9.0937500000e+001	 2.90097e-003
257	 9.1000000000e+001	 3.09898e-003
258	 9.1062500000e+001	 1.30882e-003
259	 9.1125000000e+001	 6.41650e-004
260	 9.1187500000e+001	 2.10770e-003
261	 9.1250000000e+001	 2.37907e-003
262	 9.1312500000e+001	 1.10865e-003
263	 9.1375000000e+001	 1.36758e-003
264	 9.1437500000e+001	 1.96024e-003
265	 9.1500000000e+001	 1.49224e-003
266	 9.1562500000e+001	 1.51657e-003
267	 9.1625000000e+001	 3.36449e-003
268	 9.1687500000e+001	 3.43539e-003
269	 9.1750000000e+001	 1.85016e-003
270	 9.1812500000e+001	 8.90783e-004
271	 9.1875000000e+001	 9.05708e-004
272	 9.1937500000e+001	 1.28863e-003
273	 9.2000000000e+001	 1.49455e-003
274	 9.2062500000e+001	 6.36670e-004
275	 9.2125000000e+001	 8.84780e-004
276	 9.2187500000e+001	 1.26717e-003
277	 9.2250000000e+001	 1.51535e-003
278	 9.2312500000e+001	 9.61188e-004
279	 9.2375000000e+001	 1.91719e-003
280	 9.2437500000e+001	 8.71438e-004
281	 9.2500000000e+001	 6.08944e-004
282	 9.2562500000e+001	 1.21011e-003
283	 9.2625000000e+001	 1.66360e-003
284	 9.2687500000e+001	 1.60230e-003
285	 9.2750000000e+001	 2.93496e-003
286	 9.2812500000e+001	 3.55564e-003
287	 9.2875000000e+001	 4.18603e-003
288	 9.2937500000e+001	 3.01741e-003
289	 9.3000000000e+001	 9.88446e-004
290	 9.3062500000e+001	 4.44097e-003
291	 9.3125000000e+001	 5.38069e-003
292	 9.3187500000e+001	 3.56046e-003
293	 9.3250000000e+001	 2.10860e-003
294	 9.3312500000e+001	 2.72628e-003
295	 9.3375000000e+001	 2.37868e-003
296	 9.3437500000e+001	 1.65928e-003
297	 9.3500000000e+001	 1.43458e-003
298	 9.3562500000e+001	 2.09067e-003
299	 9.3625000000e+001	 2.58115e-003
300	 9.3687500000e+001	 2.35729e-003
301	 9.3750000000e+001	 1.24141e-003
302	 9.3812500000e+001	 2.13774e-003
303	 9.3875000000e+001	 2.31021e-003
304	 9.3937500000e+001	 2.57910e-003
305	 9.4000000000e+001	 1.52313e-003
306	 9.4062500000e+001	 1.13123e-003
307	 9.4125000000e+001	 2.25664e-003
308	 9.4187500000e+001	 1.31404e-003
309	 9.4250000000e+001	 1.31406e-003
310	 9.4312500000e+001	 2.22167e-003
311	 9.4375000000e+001	 3.88207e-003
312	 9.4437500000e+001	 3.72361e-003
313	 9.4500000000e+001	 1.17962e-003
314	 9.4562500000e+001	 2.41999e-003
315	 9.4625000000e+001	 1.95800e-003
316	 9.4687500000e+001	 8.04595e-004
317	 9.4750000000e+001	 1.60840e-003
318	 9.4812500000e+001	 4.15723e-003
319	 9.4875000000e+001	 3.46945e-003
320	 9.4937500000e+001	 2.06983e-003
321	 9.5000000000e+001	 2.57050e-003
322	 9.5062500000e+001	 1.86544e-003
323	 9.5125000000e+001	 2.29685e-003
324	 9.5187500000e+001	 5.02243e-003
325	 9.5250000000e+001	 7.35575e-003
326	 9.5312500000e+001	 3.11843e-003
327	 9.5375000000e+001	 3.71150e-003
328	 9.5437500000e+001	 3.65968e-003
329	 9.5500000000e+001	 4.66962e-003
330	 9.5562500000e+001	 2.05224e-003
331	 9.5625000000e+001	 1.58105e-003
332	 9.5687500000e+001	 3.40524e-003
333	 9.5750000000e+001	 5.87980e-003
334	 9.5812500000e+001	 2.94286e-003
335	 9.5875000000e+001	 4.35098e-003
336	 9.5937500000e+001	 5.10931e-003
337	 9.6000000000e+001	 4.31079e-003
338	 9.6062500000e+001	 2.85739e-003
339	 9.6125000000e+001	 4.24860e-003
340	 9.6187500000e+001	 8.29586e-003
341	 9.6250000000e+001	 6.40542e-003
342	 9.6312500000e+001	 2.68822e-003
343	 9.6375000000e+001	 2.29644e-003
344	 9.6437500000e+001	 2.41429e-003
345	 9.6500000000e+001	 2.96957e-003
346	 9.6562500000e+001	 3.31679e-003
347	 9.6625000000e+001	 6.64735e-003
348	 9.6687500000e+001	 3.16000e-003
349	 9.6750000000e+001	 5.61315e-003
350	 9.6812500000e+001	 1.22458e-002
351	 9.6875000000e+001	 1.00522e-002
352	 9.6937500000e+001	 6.86310e-003
353	 9.7000000000e+001	 4.30213e-003
354	 9.7062500000e+001	 6.31022e-003
355	 9.7125000000e+001	 8.13283e-003
356	 9.7187500000e+001	 6.19245e-003
357	 9.7250000000e+001	 4.49616e-003
358	 9.7312500000e+001	 3.98974e-003
359	 9.7375000000e+001	 4.92529e-003
360	 9.7437500000e+001	 3.74029e-003
361	 9.7500000000e+001	 1.00782e-002
362	 9.7562500000e+001	 1.01317e-002
363	 9.7625000000e+001	 3.54279e-003
364	 9.7687500000e+001	 4.16127e-003
365	 9.7750000000e+001	 6.36994e-003
366	 9.7812500000e+001	 6.65075e-003
367	 9.7875000000e+001	 8.01507e-003
368	 9.7937500000e+001	 6.33998e-003
369	 9.8000000000e+001	 1.15341e-002
370	 9.8062500000e+001	 5.70602e-003
371	 9.8125000000e+001	 2.96810e-003
372	 9.8187500000e+001	 4.42222e-003
373	 9.8250000000e+001	 1.23671e-003
374	 9.8312500000e+001	 1.61984e-003
375	 9.8375000000e+001	 3.49302e-003
376	 9.8437500000e+001	 2.89669e-003
377	 9.8500000000e+001	 5.11806e-003
378	 9.8562500000e+001	 1.16186e-002
379	 9.8625000000e+001	 7.34845e-003
380	 9.8687500000e+001	 5.59141e-003
381	 9.8750000000e+001	 3.78578e-003
382	 9.8812500000e+001	 3.74652e-003
383	 9.8875000000e+001	 9.49796e-003
384	 9.8937500000e+001	 1.00868e-002
385	 9.9000000000e+001	 8.66492e-003
386	 9.9062500000e+001	 5.87108e-003
387	 9.9125000000e+001	 6.81246e-003
388	 9.9187500000e+001	 2.44527e-003
389	 9.9250000000e+001	 5.99168e-003
390	 9.9312500000e+001	 3.49490e-003
391	 9.9375000000e+001	 1.38929e-003
392	 9.9437500000e+001	 3.92103e-003
393	 9.9500000000e+001	 7.09416e-003
394	 9.9562500000e+001	 3.41893e-003
395	 9.9625000000e+001	 1.86818e-003
396	 9.9687500000e+001	 6.88126e-003
397	 9.9750000000e+001	 8.26849e-003
398	 9.9812500000e+001	 2.70758e-003
399	 9.9875000000e+001	 5.25928e-003
400	 9.9937500000e+001	 5.12627e-003
401	 1.0000000000e+002	 6.85403e-003
402	 1.0006250000e+002	 4.76468e-003
403	 1.0012500000e+002	 7.57086e-003
404	 1.0018750000e+002	 5.97439e-003
405	 1.0025000000e+002	 7.58110e-003
406	 1.0031250000e+002	 6.35361e-003
407	 1.0037500000e+002	 8.51569e-003
408	 1.0043750000e+002	 7.96865e-003
409	 1.0050000000e+002	 8.76696e-003
410	 1.0056250000e+002	 4.61912e-003
411	 1.0062500000e+002	 4.34036e-003
412	 1.0068750000e+002	 5.47603e-003
413	 1.0075000000e+002	 1.55130e-002
414	 1.0081250000e+002	 1.50870e-002
415	 1.0087500000e+002	 5.97991e-003
416	 1.0093750000e+002	 8.65608e-003
417	 1.0100000000e+002	 7.21399e-003
418	 1.0106250000e+002	 1.14070e-002
419	 1.0112500000e+002	 8.46403e-003
420	 1.0118750000e+002	 8.05569e-003
421	 1.0125000000e+002	 8.21333e-003
422	 1.0131250000e+002	 8.51579e-003
423	 1.0137500000e+002	 4.14599e-003
424	 1.0143750000e+002	 4.85305e-003
425	 1.0150000000e+002	 3.50615e-003
426	 1.0156250000e+002	 4.20803e-003
427	 1.0162500000e+002	 7.70552e-003
428	 1.0168750000e+002	 3.20572e-003
429	 1.0175000000e+002	 5.36568e-003
430	 1.0181250000e+002	 9.76798e-003
431	 1.0187500000e+002	 9.46704e-003
432	 1.0193750000e+002	 6.53730e-003
433	 1.0200000000e+002	 1.65950e-002
434	 1.0206250000e+002	 1.51544e-002
435	 1.0212500000e+002	 5.11324e-003
436	 1.0218750000e+002	 6.23438e-003
437	 1.0225000000e+002	 5.43797e-003
438	 1.0231250000e+002	 9.41306e-003
439	 1.0237500000e+002	 1.51333e-002
440	 1.0243750000e+002	 1.60673e-002
441	 1.0250000000e+002	 2.30564e-002
442	 1.0256250000e+002	 2.54715e-002
443	 1.0262500000e+002	 1.58212e-002
444	 1.0268750000e+002	 9.53086e-003
445	 1.0275000000e+002	 1.18370e-002
446	 1.0281250000e+002	 1.50901e-002
447	 1.0287500000e+002	 9.00562e-003
448	 1.0293750000e+002	 1.75841e-002
449	 1.0300000000e+002	 1.90293e-002
450	 1.0306250000e+002	 7.94544e-003
451	 1.0312500000e+002	 1.70454e-002
452	 1.0318750000e+002	 3.59216e-002
453	 1.0325000000e+002	 1.74717e-002
454	 1.0331250000e+002	 1.00786e-002
455	 1.0337500000e+002	 1.22169e-002
456	 1.0343750000e+002	 3.45709e-002
457	 1.0350000000e+002	 2.88279e-002
458	 1.0356250000e+002	 3.20906e-002
459	 1.0362500000e+002	 3.07350e-002
460	 1.0368750000e+002	 2.92812e-002
461	 1.0375000000e+002	 2.01703e-002
462	 1.0381250000e+002	 2.22854e-002
463	 1.0387500000e+002	 2.41273e-002
464	 1.0393750000e+002	 1.96802e-002
465	 1.0400000000e+002	 2.39024e-002
466	 1.0406250000e+002	 1.93854e-002
467	 1.0412500000e+002	 1.30653e-002
468	 1.0418750000e+002	 4.68082e-002
469	 1.0425000000e+002	 7.25525e-002
470	 1.0431250000e+002	 4.73661e-002
471	 1.0437500000e+002	 2.99423e-002
472	 1.0443750000e+002	 2.18933e-002
473	 1.0450000000e+002	 1.10623e-002
474	 1.0456250000e+002	 1.68637e-002
475	 1.0462500000e+002	 1.03341e-002
476	 1.0468750000e+002	 2.34424e-002
477	 1.0475000000e+002	 2.51107e-002
478	 1.0481250000e+002	 1.99807e-002
479	 1.0487500000e+002	 5.99347e-002
480	 1.0493750000e+002	 7.63110e-002
481	 1.0500000000e+002	 3.95520e-002
482	 1.0506250000e+002	 1.61342e-002
483	 1.0512500000e+002	 2.42280e-002
484	 1.0518750000e+002	 3.20865e-002
485	 1.0525000000e+002	 4.67562e-002
486	 1.0531250000e+002	 3.68400e-002
487	 1.0537500000e+002	 4.37569e-002
488	 1.0543750000e+002	 5.42267e-002
489	 1.0550000000e+002	 9.74950e-002
490	 1.0556250000e+002	 4.55967e-002
491	 1.0562500000e+002	 3.50398e-002
492	 1.0568750000e+002	 3.80466e-002
493	 1.0575000000e+002	 3.76150e-002
494	 1.0581250000e+002	 2.10870e-002
495	 1.0587500000e+002	 1.93773e-002
496	 1.0593750000e+002	 1.59429e-002
497	 1.0600000000e+002	 6.89123e-002
498	 1.0606250000e+002	 9.37024e-002
499	 1.0612500000e+002	 4.30795e-002
500	 1.0618750000e+002	 4.51081e-002
501	 1.0625000000e+002	 3.61318e-002
502	 1.0631250000e+002	 4.74479e-002
503	 1.0637500000e+002	 8.91265e-002
504	 1.0643750000e+002	 7.79240e-002
505	 1.0650000000e+002	 6.02862e-002
506	 1.0656250000e+002	 1.13416e-001
507	 1.0662500000e+002	 9.03584e-002
508	 1.0668750000e+002	 1.01798e-001
509	 1.0675000000e+002	 5.43535e-002
510	 1.0681250000e+002	 7.66101e-002
511	 1.0687500000e+002	 8.72768e-002
512	 1.0693750000e+002	 2.00447e-001
513	 1.0700000000e+002	 3.14687e-001
514	 1.0706250000e+002	 1.82554e-001
515	 1.0712500000e+002	 2.02453e-001
516	 1.0718750000e+002	 2.09900e-001
517	 1.0725000000e+002	 1.71706e-001
518	 1.0731250000e+002	 2.15173e-001
519	 1.0737500000e+002	 2.06578e-001
520	 1.0743750000e+002	 4.80859e-002
521	 1.0750000000e+002	 1.31809e-001
522	 1.0756250000e+002	 2.29514e-001
523	 1.0762500000e+002	 1.42354e-001
524	 1.0768750000e+002	 1.99853e-001
525	 1.0775000000e+002	 1.75258e-001
526	 1.0781250000e+002	 1.33885e-001
527	 1.0787500000e+002	 2.30886e-001
528	 1.0793750000e+002	 1.03505e-001
529	 1.0800000000e+002	 1.07682e-001
530	 1.0806250000e+002	 9.41804e-002
531	 1.0812500000e+002	 9.09633e-002
532	 1.0818750000e+002	 1.62441e-001
533	 1.0825000000e+002	 1.61758e-001
534	 1.0831250000e+002	 9.33284e-002
535	 1.0837500000e+002	 1.29376e-001
536	 1.0843750000e+002	 7.98768e-002
537	 1.0850000000e+002	 3.73168e-002
538	 1.0856250000e+002	 9.03618e-002
539	 1.0862500000e+002	 1.21902e-001
540	 1.0868750000e+002	 6.35003e-002
541	 1.0875000000e+002	 4.85126e-002
542	 1.0881250000e+002	 1.06385e-001
543	 1.0887500000e+002	 1.15211e-001
544	 1.0893750000e+002	 6.53718e-002
545	 1.0900000000e+002	 1.15631e-001
546	 1.0906250000e+002	 6.86778e-002
547	 1.0912500000e+002	 2.78021e-002
548	 1.0918750000e+002	 1.38689e-001
549	 1.0925000000e+002	 1.56467e-001
550	 1.0931250000e+002	 9.82119e-002
551	 1.0937500000e+002	 1.51195e-001
552	 1.0943750000e+002	 4.37230e-002
553	 1.0950000000e+002	 5.49953e-002
554	 1.0956250000e+002	 1.31882e-001
555	 1.0962500000e+002	 1.65088e-001
556	 1.0968750000e+002	 1.20142e-001
557	 1.0975000000e+002	 5.07494e-002
558	 1.0981250000e+002	 3.70531e-002
559	 1.0987500000e+002	 7.91655e-002
560	 1.0993750000e+002	 1.13097e-001
561	 1.1000000000e+002	 1.03777e-001
562	 1.1006250000e+002	 9.55652e-002
563	 1.1012500000e+002	 1.45889e-001
564	 1.1018750000e+002	 2.28253e-001
565	 1.1025000000e+002	 8.62103e-002
566	 1.1031250000e+002	 1.48516e-001
567	 1.1037500000e+002	 1.20618e-001
568	 1.1043750000e+002	 8.21828e-002
569	 1.1050000000e+002	 9.94148e-002
570	 1.1056250000e+002	 5.18374e-002
571	 1.1062500000e+002	 5.90603e-002
572	 1.1068750000e+002	 2.07278e-002
573	 1.1075000000e+002	 2.46404e-002
574	 1.1081250000e+002	 5.61442e-002
575	 1.1087500000e+002	 5.84013e-002
576	 1.1093750000e+002	 3.10508e-002
577	 1.1100000000e+002	 3.11576e-002
578	 1.1106250000e+002	 7.82130e-002
579	 1.1112500000e+002	 1.07574e-001
580	 1.1118750000e+002	 4.83652e-002
581	 1.1125000000e+002	 1.06390e-002
582	 1.1131250000e+002	 3.38083e-002
583	 1.1137500000e+002	 4.87342e-002
584	 1.1143750000e+002	 4.29277e-002
585	 1.1150000000e+002	 1.50601e-002
586	 1.1156250000e+002	 1.77342e-002
587	 1.1162500000e+002	 2.11750e-002
588	 1.1168750000e+002	 2.46748e-002
589	 1.1175000000e+002	 3.17803e-002
590	 1.1181250000e+002	 3.31328e-002
591	 1.1187500000e+002	 3.77525e-002
592	 1.1193750000e+002	 6.22964e-002
593	 1.1200000000e+002	 5.84237e-002
594	 1.1206250000e+002	 5.29755e-002
595	 1.1212500000e+002	 1.80975e-002
596	 1.1218750000e+002	 3.17176e-002
597	 1.1225000000e+002	 3.21157e-002
598	 1.1231250000e+002	 1.12837e-002
599	 1.1237500000e+002	 8.68989e-003
600	 1.1243750000e+002	 5.28126e-002
601	 1.1250000000e+002	 4.60010e-002
602	 1.1256250000e+002	 4.49293e-002
603	 1.1262500000e+002	 9.76150e-002
604	 1.1268750000e+002	 4.33353e-002
605	 1.1275000000e+002	 3.04356e-002
606	 1.1281250000e+002	 4.31038e-002
607	 1.1287500000e+002	 5.01843e-002
608	 1.1293750000e+002	 2.30249e-002
609	 1.1300000000e+002	 9.68793e-003
610	 1.1306250000e+002	 2.81056e-002
611	 1.1312500000e+002	 2.42571e-002
612	 1.1318750000e+002	 2.85533e-002
613	 1.1325000000e+002	 8.22017e-002
614	 1.1331250000e+002	 8.65989e-002
615	 1.1337500000e+002	 3.64028e-002
616	 1.1343750000e+002	 3.39346e-002
617	 1.1350000000e+002	 4.38614e-002
618	 1.1356250000e+002	 3.60951e-002
619	 1.1362500000e+002	 1.77827e-002
620	 1.1368750000e+002	 3.60989e-002
621	 1.1375000000e+002	 4.21717e-002
622	 1.1381250000e+002	 2.31839e-002
623	 1.1387500000e+002	 1.33826e-002
624	 1.1393750000e+002	 8.59823e-003
625	 1.1400000000e+002	 3.21273e-002
626	 1.1406250000e+002	 2.27497e-002
627	 1.1412500000e+002	 2.24742e-002
628	 1.1418750000e+002	 3.80669e-002
629	 1.1425000000e+002	 5.52112e-002
630	 1.1431250000e+002	 4.11887e-002
631	 1.1437500000e+002	 4.92481e-002
632	 1.1443750000e+002	 5.81982e-002
633	 1.1450000000e+002	 1.53312e-002
634	 1.1456250000e+002	 9.07136e-003
635	 1.1462500000e+002	 1.30428e-002
636	 1.1468750000e+002	 3.01563e-002
637	 1.1475000000e+002	 2.70936e-002
638	 1.1481250000e+002	 1.20312e-002
639	 1.1487500000e+002	 1.38985e-002
640	 1.1493750000e+002	 1.78060e-002
641	 1.1500000000e+002	 9.81580e-003
642	 1.1506250000e+002	 1.25390e-002
643	 1.1512500000e+002	 1.41569e-002
644	 1.1518750000e+002	 1.29530e-002
645	 1.1525000000e+002	 1.49132e-002
646	 1.1531250000e+002	 1.09239e-002
647	 1.1537500000e+002	 3.22681e-002
648	 1.1543750000e+002	 2.23515e-002
649	 1.1550000000e+002	 1.06555e-002
650	 1.1556250000e+002	 3.29678e-002
651	 1.1562500000e+002	 3.80131e-002
652	 1.1568750000e+002	 3.09369e-002
653	 1.1575000000e+002	 2.05617e-002
654	 1.1581250000e+002	 1.17196e-002
655	 1.1587500000e+002	 9.62341e-003
656	 1.1593750000e+002	 6.21705e-003
657	 1.1600000000e+002	 5.97278e-003
658	 1.1606250000e+002	 1.18620e-002
659	 1.1612500000e+002	 7.73475e-003
660	 1.1618750000e+002	 1.33013e-002
661	 1.1625000000e+002	 2.48737e-002
662	 1.1631250000e+002	 2.53935e-002
663	 1.1637500000e+002	 1.65109e-002
664	 1.1643750000e+002	 1.87147e-002
665	 1.1650000000e+002	 1.08959e-002
666	 1.1656250000e+002	 1.36766e-002
667	 1.1662500000e+002	 1.53228e-002
668	 1.1668750000e+002	 8.00557e-003
669	 1.1675000000e+002	 8.73022e-003
670	 1.1681250000e+002	 9.10805e-003
671	 1.1687500000e+002	 5.04083e-003
672	 1.1693750000e+002	 4.99360e-003
673	 1.1700000000e+002	 9.67084e-003
674	 1.1706250000e+002	 2.43097e-002
675	 1.1712500000e+002	 1.75061e-002
676	 1.1718750000e+002	 3.80127e-003
677	 1.1725000000e+002	 6.08383e-003
678	 1.1731250000e+002	 1.15379e-002
679	 1.1737500000e+002	 1.22366e-002
680	 1.1743750000e+002	 7.97856e-003
681	 1.1750000000e+002	 9.06973e-003
682	 1.1756250000e+002	 1.06539e-002
683	 1.1762500000e+002	 8.90732e-003
684	 1.1768750000e+002	 1.08229e-002
685	 1.1775000000e+002	 6.47888e-003
686	 1.1781250000e+002	 5.13625e-003
687	 1.1787500000e+002	 1.51808e-002
688	 1.1793750000e+002	 1.08276e-002
689	 1.1800000000e+002	 2.32244e-003
690	 1.1806250000e+002	 2.68388e-003
691	 1.1812500000e+002	 5.94729e-003
692	 1.1818750000e+002	 9.00640e-003
693	 1.1825000000e+002	 5.80894e-003
694	 1.1831250000e+002	 1.49465e-002
695	 1.1837500000e+002	 1.12005e-002
696	 1.1843750000e+002	 3.86688e-003
697	 1.1850000000e+002	 9.66038e-003
698	 1.1856250000e+002	 1.00602e-002
699	 1.1862500000e+002	 9.59309e-003
700	 1.1868750000e+002	 2.47735e-002
701	 1.1875000000e+002	 3.02064e-002
702	 1.1881250000e+002	 1.40654e-002
703	 1.1887500000e+002	 7.96791e-003
704	 1.1893750000e+002	 1.13089e-002
705	 1.1900000000e+002	 5.54102e-003
706	 1.1906250000e+002	 2.04370e-003
707	 1.1912500000e+002	 2.92170e-003
708	 1.1918750000e+002	 1.36877e-002
709	 1.1925000000e+002	 1.50645e-002
710	 1.1931250000e+002	 8.06740e-003
711	 1.1937500000e+002	 1.56282e-002
712	 1.1943750000e+002	 1.49868e-002
713	 1.1950000000e+002	 8.25068e-003
714	 1.1956250000e+002	 5.09104e-003
715	 1.1962500000e+002	 5.88469e-003
716	 1.1968750000e+002	 1.01616e-002
717	 1.1975000000e+002	 1.19264e-002
718	 1.1981250000e+002	 9.45212e-003
719	 1.1987500000e+002	 2.40818e-002
720	 1.1993750000e+002	 1.98134e-002
721	 1.2000000000e+002	 9.75042e-003
722	 1.2006250000e+002	 1.15389e-002
723	 1.2012500000e+002	 1.17775e-002
724	 1.2018750000e+002	 3.64799e-003
725	 1.2025000000e+002	 5.02098e-003
726	 1.2031250000e+002	 1.15879e-002
727	 1.2037500000e+002	 4.89487e-003
728	 1.2043750000e+002	 6.42348e-003
729	 1.2050000000e+002	 6.96644e-003
730	 1.2056250000e+002	 1.05131e-002
731	 1.2062500000e+002	 1.13157e-002
732	 1.2068750000e+002	 4.73826e-003
733	 1.2075000000e+002	 6.77180e-003
734	 1.2081250000e+002	 1.84045e-002
735	 1.2087500000e+002	 1.01013e-002
736	 1.2093750000e+002	 1.43607e-002
737	 1.2100000000e+002	 1.21427e-002
738	 1.2106250000e+002	 5.50952e-003
739	 1.2112500000e+002	 3.34625e-003
740	 1.2118750000e+002	 6.20124e-003
741	 1.2125000000e+002	 1.06395e-002
742	 1.2131250000e+002	 1.01329e-002
743	 1.2137500000e+002	 4.34401e-003
744	 1.2143750000e+002	 1.34961e-003
745	 1.2150000000e+002	 1.06599e-003
746	 1.2156250000e+002	 2.85291e-004
747	 1.2162500000e+002	 6.53406e-004
748	 1.2168750000e+002	 3.84869e-003
749	 1.2175000000e+002	 6.11016e-003
750	 1.2181250000e+002	 6.33730e-003
751	 1.2187500000e+002	 4.33399e-003
752	 1.2193750000e+002	 6.71037e-003
753	 1.2200000000e+002	 1.18800e-002
754	 1.2206250000e+002	 7.95432e-003
755	 1.2212500000e+002	 7.18887e-003
756	 1.2218750000e+002	 5.18510e-003
757	 1.2225000000e+002	 7.30275e-003
758	 1.2231250000e+002	 4.61242e-003
759	 1.2237500000e+002	 1.27625e-003
760	 1.2243750000e+002	 4.13037e-003
761	 1.2250000000e+002	 4.92170e-003
762	 1.2256250000e+002	 3.54287e-003
763	 1.2262500000e+002	 3.79569e-003
764	 1.2268750000e+002	 7.50656e-003
765	 1.2275000000e+002	 5.46424e-003
766	 1.2281250000e+002	 2.44887e-003
767	 1.2287500000e+002	 3.41504e-003
768	 1.2293750000e+002	 5.90770e-003
769	 1.2300000000e+002	 2.37084e-003
770	 1.2306250000e+002	 5.22235e-003
771	 1.2312500000e+002	 1.29310e-002
772	 1.2318750000e+002	 8.86306e-003
773	 1.2325000000e+002	 6.76194e-003
774	 1.2331250000e+002	 4.66908e-003
775	 1.2337500000e+002	 8.03500e-003
776	 1.2343750000e+002	 2.52946e-003
777	 1.2350000000e+002	 1.10062e-003
778	 1.2356250000e+002	 2.98223e-003
779	 1.2362500000e+002	 4.86346e-003
780	 1.2368750000e+002	 5.83742e-003
781	 1.2375000000e+002	 2.79129e-003
782	 1.2381250000e+002	 8.50480e-003
783	 1.2387500000e+002	 9.23650e-003
784	 1.2393750000e+002	 5.93162e-003
785	 1.2400000000e+002	 1.89065e-003
786	 1.2406250000e+002	 1.75176e-003
787	 1.2412500000e+002	 2.19519e-003
788	 1.2418750000e+002	 5.25683e-003
789	 1.2425000000e+002	 4.64725e-003
790	 1.2431250000e+002	 6.26564e-003
791	 1.2437500000e+002	 7.87169e-003
792	 1.2443750000e+002	 3.02355e-003
793	 1.2450000000e+002	 5.50856e-003
794	 1.2456250000e+002	 1.16774e-002
795	 1.2462500000e+002	 1.56792e-002
796	 1.2468750000e+002	 8.17931e-003
797	 1.2475000000e+002	 6.41428e-003
798	 1.2481250000e+002	 4.85222e-003
799	 1.2487500000e+002	 2.59994e-003
800	 1.2493750000e+002	 2.75653e-003
801	 1.2500000000e+002	 2.18302e-003
802	 1.2506250000e+002	 1.70751e-003
803	 1.2512500000e+002	 4.94355e-003
804	 1.2518750000e+002	 1.06169e-002
805	 1.2525000000e+002	 1.16919e-002
806	 1.2531250000e+002	 1.20402e-002
807	 1.2537500000e+002	 9.49734e-003
808	 1.2543750000e+002	 5.01858e-003
809	 1.2550000000e+002	 6.89143e-003
810	 1.2556250000e+002	 1.22701e-002
811	 1.2562500000e+002	 1.10759e-002
812	 1.2568750000e+002	 5.04872e-003
813	 1.2575000000e+002	 1.90449e-003
814	 1.2581250000e+002	 2.19785e-003
815	 1.2587500000e+002	 3.37057e-003
816	 1.2593750000e+002	 5.16979e-003
817	 1.2600000000e+002	 7.86956e-003
818	 1.2606250000e+002	 6.26974e-003
819	 1.2612500000e+002	 3.83559e-003
820	 1.2618750000e+002	 5.32989e-003
821	 1.2625000000e+002	 8.10159e-003
822	 1.2631250000e+002	 4.44262e-003
823	 1.2637500000e+002	 1.58221e-003
824	 1.2643750000e+002	 2.83958e-003
825	 1.2650000000e+002	 4.65396e-003
826	 1.2656250000e+002	 9.01057e-003
827	 1.2662500000e+002	 3.61775e-003
828	 1.2668750000e+002	 2.34566e-003
829	 1.2675000000e+002	 2.30421e-003
830	 1.2681250000e+002	 4.97355e-003
831	 1.2687500000e+002	 4.75766e-003
832	 1.2693750000e+002	 4.96166e-003
833	 1.2700000000e+002	 6.15835e-003
834	 1.2706250000e+002	 4.81360e-003
835	 1.2712500000e+002	 6.09439e-003
836	 1.2718750000e+002	 5.85643e-003
837	 1.2725000000e+002	 9.85389e-003
838	 1.2731250000e+002	 7.28620e-003
839	 1.2737500000e+002	 5.49107e-003
840	 1.2743750000e+002	 6.56441e-003
841	 1.2750000000e+002	 5.13450e-003
842	 1.2756250000e+002	 9.30480e-004
843	 1.2762500000e+002	 1.35613e-003
844	 1.2768750000e+002	 5.59954e-003
845	 1.2775000000e+002	 6.46595e-003
846	 1.2781250000e+002	 3.58175e-003
847	 1.2787500000e+002	 2.65977e-003
848	 1.2793750000e+002	 3.80284e-003
849	 1.2800000000e+002	 5.43414e-003
850	 1.2806250000e+002	 2.97522e-003
851	 1.2812500000e+002	 6.68729e-003
852	 1.2818750000e+002	 8.20802e-003
853	 1.2825000000e+002	 1.09161e-002
854	 1.2831250000e+002	 1.07802e-002
855	 1.2837500000e+002	 5.78554e-003
856	 1.2843750000e+002	 6.02178e-003
857	 1.2850000000e+002	 7.38137e-003
858	 1.2856250000e+002	 7.98967e-003
859	 1.2862500000e+002	 4.61601e-003
860	 1.2868750000e+002	 1.63039e-003
861	 1.2875000000e+002	 1.80395e-003
862	 1.2881250000e+002	 6.83442e-003
863	 1.2887500000e+002	 1.57710e-002
864	 1.2893750000e+002	 1.11628e-002
865	 1.2900000000e+002	 4.23066e-003
866	 1.2906250000e+002	 1.70000e-003
867	 1.2912500000e+002	 3.05151e-003
868	 1.2918750000e+002	 7.31273e-003
869	 1.2925000000e+002	 6.59569e-003
870	 1.2931250000e+002	 3.76294e-003
871	 1.2937500000e+002	 2.71829e-003
872	 1.2943750000e+002	 4.39495e-003
873	 1.2950000000e+002	 3.97696e-003
874	 1.2956250000e+002	 4.54882e-003
875	 1.2962500000e+002	 7.48271e-003
876	 1.2968750000e+002	 4.06120e-003
877	 1.2975000000e+002	 4.95766e-003
878	 1.2981250000e+002	 6.41421e-003
879	 1.2987500000e+002	 2.71691e-003
880	 1.2993750000e+002	 2.32987e-003
881	 1.3000000000e+002	 2.22623e-003
882	 1.3006250000e+002	 7.08454e-004
883	 1.3012500000e+002	 1.69139e-003
884	 1.3018750000e+002	 6.21140e-003
885	 1.3025000000e+002	 4.00451e-003
886	 1.3031250000e+002	 2.40477e-003
887	 1.3037500000e+002	 4.88469e-003
888	 1.3043750000e+002	 4.87912e-003
889	 1.3050000000e+002	 4.34272e-003
890	 1.3056250000e+002	 2.58046e-003
891	 1.3062500000e+002	 1.84115e-003
892	 1.3068750000e+002	 1.42029e-003
893	 1.3075000000e+002	 7.02717e-004
894	 1.3081250000e+002	 1.70771e-003
895	 1.3087500000e+002	 2.79630e-003
896	 1.3093750000e+002	 3.82984e-003
897	 1.3100000000e+002	 3.92677e-003
898	 1.3106250000e+002	 2.58304e-003
899	 1.3112500000e+002	 4.06981e-003
900	 1.3118750000e+002	 2.62982e-003
901	 1.3125000000e+002	 3.40646e-003
902	 1.3131250000e+002	 3.83859e-003
903	 1.3137500000e+002	 2.31416e-003
904	 1.3143750000e+002	 3.11167e-003
905	 1.3150000000e+002	 7.24367e-003
906	 1.3156250000e+002	 6.31063e-003
907	 1.3162500000e+002	 2.90371e-003
908	 1.3168750000e+002	 4.96329e-003
909	 1.3175000000e+002	 3.95074e-003
910	 1.3181250000e+002	 5.04508e-003
911	 1.3187500000e+002	 3.32623e-003
912	 1.3193750000e+002	 2.90679e-003
913	 1.3200000000e+002	 3.43632e-003
914	 1.3206250000e+002	 3.52382e-003
915	 1.3212500000e+002	 7.72671e-003
916	 1.3218750000e+002	 9.83147e-003
917	 1.3225000000e+002	 8.64231e-003
918	 1.3231250000e+002	 5.41923e-003
919	 1.3237500000e+002	 2.58528e-003
920	 1.3243750000e+002	 3.86398e-003
921	 1.3250000000e+002	 4.81954e-003
922	 1.3256250000e+002	 3.00699e-003
923	 1.3262500000e+002	 5.06366e-004
924	 1.3268750000e+002	 5.77359e-004
925	 1.3275000000e+002	 2.34370e-003
926	 1.3281250000e+002	 2.76634e-003
927	 1.3287500000e+002	 2.41230e-003
928	 1.3293750000e+002	 1.68767e-003
929	 1.3300000000e+002	 2.18082e-003
930	 1.3306250000e+002	 3.54971e-003
931	 1.3312500000e+002	 7.55817e-003
932	 1.3318750000e+002	 9.05483e-003
933	 1.3325000000e+002	 7.07447e-003
934	 1.3331250000e+002	 4.26192e-003
935	 1.3337500000e+002	 3.80951e-003
936	 1.3343750000e+002	 3.01093e-003
937	 1.3350000000e+002	 2.67289e-003
938	 1.3356250000e+002	 4.15509e-003
939	 1.3362500000e+002	 4.61112e-003
940	 1.3368750000e+002	 2.79419e-003
941	 1.3375000000e+002	 4.49609e-003
942	 1.3381250000e+002	 6.99587e-003
943	 1.3387500000e+002	 4.92852e-003
944	 1.3393750000e+002	 4.10480e-003
945	 1.3400000000e+002	 1.91123e-003
946	 1.3406250000e+002	 7.02376e-004
947	 1.3412500000e+002	 1.61668e-003
948	 1.3418750000e+002	 3.41887e-003
949	 1.3425000000e+002	 1.09550e-002
950	 1.3431250000e+002	 8.21356e-003
951	 1.3437500000e+002	 1.16891e-002
952	 1.3443750000e+002	 1.40734e-002
953	 1.3450000000e+002	 4.38662e-003
954	 1.3456250000e+002	 2.35400e-003
955	 1.3462500000e+002	 4.64376e-003
956	 1.3468750000e+002	 5.47527e-003
957	 1.3475000000e+002	 3.87506e-003
958	 1.3481250000e+002	 3.02809e-003
959	 1.3487500000e+002	 6.58104e-003
960	 1.3493750000e+002	 5.85337e-003
961	 1.3500000000e+002	 5.57636e-003
962	 1.3506250000e+002	 4.08959e-003
963	 1.3512500000e+002	 6.45607e-003
964	 1.3518750000e+002	 2.69586e-003
965	 1.3525000000e+002	 2.56401e-003
966	 1.3531250000e+002	 4.79275e-003
967	 1.3537500000e+002	 8.89548e-003
968	 1.3543750000e+002	 2.18861e-002
969	 1.3550000000e+002	 1.10406e-002
970	 1.3556250000e+002	 1.86811e-003
971	 1.3562500000e+002	 2.97878e-003
972	 1.3568750000e+002	 9.19862e-003
973	 1.3575000000e+002	 5.96618e-003
974	 1.3581250000e+002	 2.42901e-003
975	 1.3587500000e+002	 2.26766e-003
976	 1.3593750000e+002	 1.76726e-003
977	 1.3600000000e+002	 7.46267e-004
978	 1.3606250000e+002	 2.66691e-003
979	 1.3612500000e+002	 6.11053e-003
980	 1.3618750000e+002	 7.85688e-003
981	 1.3625000000e+002	 7.30973e-003
982	 1.3631250000e+002	 3.33953e-003
983	 1.3637500000e+002	 1.61194e-003
984	 1.3643750000e+002	 6.47932e-003
985	 1.3650000000e+002	 5.58472e-003
986	 1.3656250000e+002	 4.04641e-003
987	 1.3662500000e+002	 3.07245e-003
988	 1.3668750000e+002	 5.95615e-003
989	 1.3675000000e+002	 5.34639e-003
990	 1.3681250000e+002	 4.05148e-003
991	 1.3687500000e+002	 9.78548e-003
992	 1.3693750000e+002	 6.46673e-003
993	 1.3700000000e+002	 6.47653e-003
994	 1.3706250000e+002	 7.01261e-003
995	 1.3712500000e+002	 1.22206e-002
996	 1.3718750000e+002	 8.20368e-003
997	 1.3725000000e+002	 7.06993e-003
998	 1.3731250000e+002	 7.41162e-003
999	 1.3737500000e+002	 6.24755e-003
1000	 1.3743750000e+002	 3.65556e-003
1001	 1.3750000000e+002	 4.87871e-003
1002	 1.3756250000e+002	 6.11423e-003
1003	 1.3762500000e+002	 1.06007e-002
1004	 1.3768750000e+002	 1.56867e-002
1005	 1.3775000000e+002	 1.02610e-002
1006	 1.3781250000e+002	 5.00770e-003
1007	 1.3787500000e+002	 6.28231e-003
1008	 1.3793750000e+002	 4.32701e-003
1009	 1.3800000000e+002	 7.36141e-003
1010	 1.3806250000e+002	 5.21626e-003
1011	 1.3812500000e+002	 9.77537e-003
1012	 1.3818750000e+002	 1.11080e-002
1013	 1.3825000000e+002	 4.64192e-003
1014	 1.3831250000e+002	 3.20069e-003
1015	 1.3837500000e+002	 2.05347e-003
1016	 1.3843750000e+002	 4.05751e-003
1017	 1.3850000000e+002	 1.12690e-002
1018	 1.3856250000e+002	 9.30750e-003
1019	 1.3862500000e+002	 9.28025e-003
1020	 1.3868750000e+002	 9.02956e-003
1021	 1.3875000000e+002	 8.82818e-003
1022	 1.3881250000e+002	 7.20292e-003
1023	 1.3887500000e+002	 7.91913e-003
1024	 1.3893750000e+002	 6.63106e-003
1025	 1.3900000000e+002	 8.53180e-003
1026	 1.3906250000e+002	 1.08389e-002
1027	 1.3912500000e+002	 2.80451e-003
1028	 1.3918750000e+002	 3.95527e-003
1029	 1.3925000000e+002	 8.51990e-003
1030	 1.3931250000e+002	 1.22911e-002
1031	 1.3937500000e+002	 4.54449e-003
1032	 1.3943750000e+002	 4.43196e-003
1033	 1.3950000000e+002	 7.91793e-003
1034	 1.3956250000e+002	 4.11879e-003
1035	 1.3962500000e+002	 2.95715e-003
1036	 1.3968750000e+002	 3.47666e-003
1037	 1.3975000000e+002	 6.93476e-003
1038	 1.3981250000e+002	 3.70151e-003
1039	 1.3987500000e+002	 3.04781e-003
1040	 1.3993750000e+002	 3.00359e-003
1041	 1.4000000000e+002	 6.40373e-003
1042	 1.4006250000e+002	 1.12837e-002
1043	 1.4012500000e+002	 8.29730e-003
1044	 1.4018750000e+002	 6.26729e-003
1045	 1.4025000000e+002	 8.30418e-003
1046	 1.4031250000e+002	 1.31796e-002
1047	 1.4037500000e+002	 1.30805e-002
1048	 1.4043750000e+002	 6.01555e-003
1049	 1.4050000000e+002	 6.80273e-003
1050	 1.4056250000e+002	 7.97488e-003
1051	 1.4062500000e+002	 2.06763e-002
1052	 1.4068750000e+002	 1.19042e-002
1053	 1.4075000000e+002	 8.32716e-003
1054	 1.4081250000e+002	 5.97707e-003
1055	 1.4087500000e+002	 5.83720e-003
1056	 1.4093750000e+002	 5.59195e-003
1057	 1.4100000000e+002	 5.90454e-003
1058	 1.4106250000e+002	 1.03616e-002
1059	 1.4112500000e+002	 4.67383e-003
1060	 1.4118750000e+002	 6.61678e-003
1061	 1.4125000000e+002	 7.66122e-003
1062	 1.4131250000e+002	 7.47554e-003
1063	 1.4137500000e+002	 9.25150e-003
1064	 1.4143750000e+002	 1.08278e-002
1065	 1.4150000000e+002	 7.81855e-003
1066	 1.4156250000e+002	 9.11594e-003
1067	 1.4162500000e+002	 6.54787e-003
1068	 1.4168750000e+002	 7.99906e-003
1069	 1.4175000000e+002	 9.32162e-003
1070	 1.4181250000e+002	 6.09594e-003
1071	 1.4187500000e+002	 6.84112e-003
1072	 1.4193750000e+002	 6.86885e-003
1073	 1.4200000000e+002	 5.62134e-003
1074	 1.4206250000e+002	 1.22846e-002
1075	 1.4212500000e+002	 2.19819e-002
1076	 1.4218750000e+002	 1.21387e-002
1077	 1.4225000000e+002	 5.06588e-003
1078	 1.4231250000e+002	 6.57537e-003
1079	 1.4237500000e+002	 9.44235e-003
1080	 1.4243750000e+002	 2.63049e-003
1081	 1.4250000000e+002	 8.44400e-003
1082	 1.4256250000e+002	 1.08879e-002
1083	 1.4262500000e+002	 5.39811e-003
1084	 1.4268750000e+002	 3.49224e-003
1085	 1.4275000000e+002	 1.76205e-003
1086	 1.4281250000e+002	 1.16597e-003
1087	 1.4287500000e+002	 3.02469e-003
1088	 1.4293750000e+002	 6.08234e-003
1089	 1.4300000000e+002	 1.17035e-002
1090	 1.4306250000e+002	 1.52563e-002
1091	 1.4312500000e+002	 1.21604e-002
1092	 1.4318750000e+002	 9.56999e-003
1093	 1.4325000000e+002	 1.16106e-002
1094	 1.4331250000e+002	 7.51523e-003
1095	 1.4337500000e+002	 5.17215e-003
1096	 1.4343750000e+002	 8.35174e-003
1097	 1.4350000000e+002	 1.60863e-002
1098	 1.4356250000e+002	 8.56342e-003
1099	 1.4362500000e+002	 1.26453e-002
1100	 1.4368750000e+002	 1.23414e-002
1101	 1.4375000000e+002	 1.45270e-002
1102	 1.4381250000e+002	 1.03042e-002
1103	 1.4387500000e+002	 1.59852e-002
1104	 1.4393750000e+002	 2.06838e-002
1105	 1.4400000000e+002	 1.39994e-002
1106	 1.4406250000e+002	 1.13281e-002
1107	 1.4412500000e+002	 1.53010e-002
1108	 1.4418750000e+002	 1.55566e-002
1109	 1.4425000000e+002	 4.19233e-003
1110	 1.4431250000e+002	 4.49365e-003
1111	 1.4437500000e+002	 5.30621e-003
1112	 1.4443750000e+002	 6.25325e-003
1113	 1.4450000000e+002	 2.85475e-003
1114	 1.4456250000e+002	 2.20739e-003
1115	 1.4462500000e+002	 9.42781e-003
1116	 1.4468750000e+002	 4.68100e-003
1117	 1.4475000000e+002	 8.17632e-003
1118	 1.4481250000e+002	 1.55488e-002
1119	 1.4487500000e+002	 8.52639e-003
1120	 1.4493750000e+002	 7.10181e-003
1121	 1.4500000000e+002	 4.05404e-003
1122	 1.4506250000e+002	 2.70281e-003
1123	 1.4512500000e+002	 1.00741e-002
1124	 1.4518750000e+002	 1.16934e-002
1125	 1.4525000000e+002	 3.99095e-003
1126	 1.4531250000e+002	 1.37924e-003
1127	 1.4537500000e+002	 1.04456e-003
1128	 1.4543750000e+002	 3.30760e-003
1129	 1.4550000000e+002	 1.66051e-002
1130	 1.4556250000e+002	 2.45569e-002
1131	 1.4562500000e+002	 1.67635e-002
1132	 1.4568750000e+002	 1.57529e-002
1133	 1.4575000000e+002	 1.97821e-002
1134	 1.4581250000e+002	 3.62940e-002
1135	 1.4587500000e+002	 2.52475e-002
1136	 1.4593750000e+002	 1.50050e-002
1137	 1.4600000000e+002	 1.44806e-002
1138	 1.4606250000e+002	 9.46664e-003
1139	 1.4612500000e+002	 9.52236e-003
1140	 1.4618750000e+002	 6.11977e-003
1141	 1.4625000000e+002	 7.20084e-003
1142	 1.4631250000e+002	 8.56148e-003
1143	 1.4637500000e+002	 5.37397e-003
1144	 1.4643750000e+002	 8.12404e-003
1145	 1.4650000000e+002	 3.62682e-002
1146	 1.4656250000e+002	 4.44474e-002
1147	 1.4662500000e+002	 1.32979e-002
1148	 1.4668750000e+002	 1.24825e-002
1149	 1.4675000000e+002	 1.48983e-002
1150	 1.4681250000e+002	 6.43816e-003
1151	 1.4687500000e+002	 2.31968e-002
1152	 1.4693750000e+002	 1.50375e-002
1153	 1.4700000000e+002	 3.12880e-003
1154	 1.4706250000e+002	 1.03216e-002
1155	 1.4712500000e+002	 1.47194e-002
1156	 1.4718750000e+002	 1.13419e-002
1157	 1.4725000000e+002	 2.27380e-002
1158	 1.4731250000e+002	 2.90157e-002
1159	 1.4737500000e+002	 2.90490e-002
1160	 1.4743750000e+002	 2.32879e-002
1161	 1.4750000000e+002	 3.97340e-002
1162	 1.4756250000e+002	 2.05697e-002
1163	 1.4762500000e+002	 5.30544e-002
1164	 1.4768750000e+002	 4.15063e-002
1165	 1.4775000000e+002	 1.27482e-002
1166	 1.4781250000e+002	 1.50894e-002
1167	 1.4787500000e+002	 1.87407e-002
1168	 1.4793750000e+002	 1.15088e-002
1169	 1.4800000000e+002	 5.46289e-003
1170	 1.4806250000e+002	 2.05412e-002
1171	 1.4812500000e+002	 1.34926e-002
1172	 1.4818750000e+002	 1.20237e-002
1173	 1.4825000000e+002	 9.23175e-003
1174	 1.4831250000e+002	 9.68808e-003
1175	 1.4837500000e+002	 6.37013e-003
1176	 1.4843750000e+002	 2.82985e-003
1177	 1.4850000000e+002	 2.17884e-003
1178	 1.4856250000e+002	 9.61209e-003
1179	 1.4862500000e+002	 1.75685e-002
1180	 1.4868750000e+002	 4.42635e-003
1181	 1.4875000000e+002	 4.74476e-003
1182	 1.4881250000e+002	 6.49263e-003
1183	 1.4887500000e+002	 2.28308e-002
1184	 1.4893750000e+002	 3.92923e-002
1185	 1.4900000000e+002	 2.34815e-002
1186	 1.4906250000e+002	 2.30840e-002
1187	 1.4912500000e+002	 1.84769e-002
1188	 1.4918750000e+002	 8.39043e-003
1189	 1.4925000000e+002	 1.59614e-002
1190	 1.4931250000e+002	 2.96088e-002
1191	 1.4937500000e+002	 2.85105e-002
1192	 1.4943750000e+002	 2.27015e-002
1193	 1.4950000000e+002	 2.11497e-002
1194	 1.4956250000e+002	 2.74207e-002
1195	 1.4962500000e+002	 2.41207e-002
1196	 1.4968750000e+002	 7.69009e-003
1197	 1.4975000000e+002	 8.93602e-003
1198	 1.4981250000e+002	 1.27737e-002
1199	 1.4987500000e+002	 8.46659e-003
1200	 1.4993750000e+002	 5.86925e-003
1201	 1.5000000000e+002	 5.99490e-003
1202	 1.5006250000e+002	 2.28558e-002
1203	 1.5012500000e+002	 2.37851e-002
1204	 1.5018750000e+002	 7.51896e-003
1205	 1.5025000000e+002	 6.92027e-003
1206	 1.5031250000e+002	 8.01789e-003
1207	 1.5037500000e+002	 1.46279e-002
1208	 1.5043750000e+002	 2.18192e-002
1209	 1.5050000000e+002	 4.64329e-002
1210	 1.5056250000e+002	 4.42720e-002
1211	 1.5062500000e+002	 2.83982e-002
1212	 1.5068750000e+002	 2.27094e-002
1213	 1.5075000000e+002	 2.36324e-002
1214	 1.5081250000e+002	 2.66607e-002
1215	 1.5087500000e+002	 4.70555e-002
1216	 1.5093750000e+002	 3.18743e-002
1217	 1.5100000000e+002	 2.66848e-002
1218	 1.5106250000e+002	 3.48831e-002
1219	 1.5112500000e+002	 3.43628e-002
1220	 1.5118750000e+002	 2.14549e-002
1221	 1.5125000000e+002	 1.98251e-002
1222	 1.5131250000e+002	 2.05915e-002
1223	 1.5137500000e+002	 1.86589e-002
1224	 1.5143750000e+002	 2.83372e-002
1225	 1.5150000000e+002	 2.07375e-002
1226	 1.5156250000e+002	 2.93923e-002
1227	 1.5162500000e+002	 3.67828e-002
1228	 1.5168750000e+002	 4.63044e-002
1229	 1.5175000000e+002	 2.45891e-002
1230	 1.5181250000e+002	 5.64393e-002
1231	 1.5187500000e+002	 3.58360e-002
1232	 1.5193750000e+002	 2.37653e-002
1233	 1.5200000000e+002	 3.04233e-002
1234	 1.5206250000e+002	 2.45710e-002
1235	 1.5212500000e+002	 2.69969e-002
1236	 1.5218750000e+002	 1.81632e-002
1237	 1.5225000000e+002	 2.14443e-002
1238	 1.5231250000e+002	 4.24653e-003
1239	 1.5237500000e+002	 5.21580e-003
1240	 1.5243750000e+002	 1.87315e-002
1241	 1.5250000000e+002	 3.06796e-002
1242	 1.5256250000e+002	 1.68418e-002
1243	 1.5262500000e+002	 3.30668e-002
1244	 1.5268750000e+002	 1.64966e-002
1245	 1.5275000000e+002	 1.60555e-002
1246	 1.5281250000e+002	 4.59861e-002
1247	 1.5287500000e+002	 5.15324e-002
1248	 1.5293750000e+002	 7.60075e-002
1249	 1.5300000000e+002	 1.29393e-001
1250	 1.5306250000e+002	 7.26560e-002
1251	 1.5312500000e+002	 1.46217e-002
1252	 1.5318750000e+002	 1.22567e-002
1253	 1.5325000000e+002	 2.86597e-002
1254	 1.5331250000e+002	 7.59401e-002
1255	 1.5337500000e+002	 4.71249e-002
1256	 1.5343750000e+002	 2.54359e-002
1257	 1.5350000000e+002	 1.51259e-002
1258	 1.5356250000e+002	 2.74129e-002
1259	 1.5362500000e+002	 2.59748e-002
1260	 1.5368750000e+002	 1.12332e-002
1261	 1.5375000000e+002	 4.89784e-002
1262	 1.5381250000e+002	 7.01155e-002
1263	 1.5387500000e+002	 8.40862e-002
1264	 1.5393750000e+002	 8.40605e-002
1265	 1.5400000000e+002	 6.97733e-002
1266	 1.5406250000e+002	 5.93608e-002
1267	 1.5412500000e+002	 3.88217e-002
1268	 1.5418750000e+002	 3.06180e-002
1269	 1.5425000000e+002	 4.77048e-002
1270	 1.5431250000e+002	 4.02429e-002
1271	 1.5437500000e+002	 6.41029e-002
1272	 1.5443750000e+002	 1.00869e-001
1273	 1.5450000000e+002	 6.57072e-002
1274	 1.5456250000e+002	 8.39940e-002
1275	 1.5462500000e+002	 9.85427e-002
1276	 1.5468750000e+002	 2.00089e-002
1277	 1.5475000000e+002	 1.56741e-002
1278	 1.5481250000e+002	 2.96604e-002
1279	 1.5487500000e+002	 6.13732e-002
1280	 1.5493750000e+002	 6.86392e-002
1281	 1.5500000000e+002	 5.80018e-002
1282	 1.5506250000e+002	 5.64147e-002
1283	 1.5512500000e+002	 8.38809e-002
1284	 1.5518750000e+002	 1.07676e-001
1285	 1.5525000000e+002	 8.11059e-002
1286	 1.5531250000e+002	 1.06500e-001
1287	 1.5537500000e+002	 2.17795e-001
1288	 1.5543750000e+002	 7.35660e-002
1289	 1.5550000000e+002	 5.30711e-002
1290	 1.5556250000e+002	 1.03024e-001
1291	 1.5562500000e+002	 8.58816e-002
1292	 1.5568750000e+002	 1.14434e-001
1293	 1.5575000000e+002	 1.32159e-001
1294	 1.5581250000e+002	 1.94385e-001
1295	 1.5587500000e+002	 1.40892e-001
1296	 1.5593750000e+002	 4.80287e-002
1297	 1.5600000000e+002	 4.51920e-002
1298	 1.5606250000e+002	 1.05587e-001
1299	 1.5612500000e+002	 1.56793e-001
1300	 1.5618750000e+002	 6.26088e-002
1301	 1.5625000000e+002	 1.69421e-002
1302	 1.5631250000e+002	 6.68914e-002
1303	 1.5637500000e+002	 1.33167e-001
1304	 1.5643750000e+002	 9.93753e-002
1305	 1.5650000000e+002	 3.14223e-002
1306	 1.5656250000e+002	 2.94514e-002
1307	 1.5662500000e+002	 8.76341e-002
1308	 1.5668750000e+002	 9.34251e-002
1309	 1.5675000000e+002	 5.52131e-002
1310	 1.5681250000e+002	 8.00715e-002
1311	 1.5687500000e+002	 1.09361e-001
1312	 1.5693750000e+002	 2.14484e-001
1313	 1.5700000000e+002	 2.86361e-001
1314	 1.5706250000e+002	 1.09499e-001
1315	 1.5712500000e+002	 9.00273e-002
1316	 1.5718750000e+002	 5.52809e-002
1317	 1.5725000000e+002	 3.24596e-002
1318	 1.5731250000e+002	 2.59945e-002
1319	 1.5737500000e+002	 5.31186e-002
1320	 1.5743750000e+002	 4.63711e-002
1321	 1.5750000000e+002	 6.87155e-002
1322	 1.5756250000e+002	 1.55192e-001
1323	 1.5762500000e+002	 1.66264e-001
1324	 1.5768750000e+002	 8.06184e-002
1325	 1.5775000000e+002	 7.94139e-002
1326	 1.5781250000e+002	 2.05445e-001
1327	 1.5787500000e+002	 1.32744e-001
1328	 1.5793750000e+002	 1.46208e-001
1329	 1.5800000000e+002	 1.50455e-001
1330	 1.5806250000e+002	 7.02153e-002
1331	 1.5812500000e+002	 7.36658e-002
1332	 1.5818750000e+002	 1.89961e-001
1333	 1.5825000000e+002	 1.54985e-001
1334	 1.5831250000e+002	 1.65087e-001
1335	 1.5837500000e+002	 6.65511e-002
1336	 1.5843750000e+002	 3.41491e-002
1337	 1.5850000000e+002	 6.65366e-002
1338	 1.5856250000e+002	 8.42889e-002
1339	 1.5862500000e+002	 9.14174e-002
1340	 1.5868750000e+002	 1.83033e-001
1341	 1.5875000000e+002	 2.42154e-001
1342	 1.5881250000e+002	 1.54180e-001
1343	 1.5887500000e+002	 1.17447e-001
1344	 1.5893750000e+002	 2.21920e-001
1345	 1.5900000000e+002	 3.91726e-001
1346	 1.5906250000e+002	 2.97341e-001
1347	 1.5912500000e+002	 1.68517e-001
1348	 1.5918750000e+002	 2.19133e-001
1349	 1.5925000000e+002	 2.60111e-001
1350	 1.5931250000e+002	 3.54564e-001
1351	 1.5937500000e+002	 1.42008e-001
1352	 1.5943750000e+002	 2.47504e-001
1353	 1.5950000000e+002	 2.53732e-001
1354	 1.5956250000e+002	 9.05184e-002
1355	 1.5962500000e+002	 1.46418e-001
1356	 1.5968750000e+002	 5.06298e-001
1357	 1.5975000000e+002	 2.50776e-001
1358	 1.5981250000e+002	 6.15740e-002
1359	 1.5987500000e+002	 3.98708e-002
1360	 1.5993750000e+002	 7.66805e-002
1361	 1.6000000000e+002	 2.05182e-001
1362	 1.6006250000e+002	 4.53958e-001
1363	 1.6012500000e+002	 8.97373e-001
1364	 1.6018750000e+002	 9.44342e-001
1365	 1.6025000000e+002	 5.48065e-001
1366	 1.6031250000e+002	 6.36542e-001
1367	 1.6037500000e+002	 6.99547e-001
1368	 1.6043750000e+002	 3.65461e-001
1369	 1.6050000000e+002	 1.43020e-001
1370	 1.6056250000e+002	 1.76666e-001
1371	 1.6062500000e+002	 2.95343e-001
1372	 1.6068750000e+002	 1.69630e-001
1373	 1.6075000000e+002	 2.22650e-001
1374	 1.6081250000e+002	 5.17933e-001
1375	 1.6087500000e+002	 5.59205e-001
1376	 1.6093750000e+002	 3.20159e-001
1377	 1.6100000000e+002	 4.95966e-001
1378	 1.6106250000e+002	 2.13329e-001
1379	 1.6112500000e+002	 3.56131e-001
1380	 1.6118750000e+002	 5.00734e-001
1381	 1.6125000000e+002	 1.77094e-001
1382	 1.6131250000e+002	 9.15371e-002
1383	 1.6137500000e+002	 1.95991e-001
1384	 1.6143750000e+002	 3.59978e-001
1385	 1.6150000000e+002	 4.63884e-001
1386	 1.6156250000e+002	 1.91807e-001
1387	 1.6162500000e+002	 3.52610e-001
1388	 1.6168750000e+002	 5.21893e-001
1389	 1.6175000000e+002	 3.00878e-001
1390	 1.6181250000e+002	 1.31715e-001
1391	 1.6187500000e+002	 1.59870e-001
1392	 1.6193750000e+002	 2.79489e-001
1393	 1.6200000000e+002	 1.94924e-001
1394	 1.6206250000e+002	 1.33118e-001
1395	 1.6212500000e+002	 2.49593e-001
1396	 1.6218750000e+002	 2.99555e-001
1397	 1.6225000000e+002	 4.35934e-001
1398	 1.6231250000e+002	 3.49572e-001
1399	 1.6237500000e+002	 3.59458e-001
1400	 1.6243750000e+002	 2.92232e-001
1401	 1.6250000000e+002	 2.78301e-001
1402	 1.6256250000e+002	 5.80267e-001
1403	 1.6262500000e+002	 6.73282e-001
1404	 1.6268750000e+002	 2.30841e-001
1405	 1.6275000000e+002	 1.40057e-001
1406	 1.6281250000e+002	 1.57690e-001
1407	 1.6287500000e+002	 9.20877e-002
1408	 1.6293750000e+002	 3.59809e-001
1409	 1.6300000000e+002	 5.45384e-001
1410	 1.6306250000e+002	 3.19994e-001
1411	 1.6312500000e+002	 1.12070e-001
1412	 1.6318750000e+002	 2.16168e-001
1413	 1.6325000000e+002	 2.22516e-001
1414	 1.6331250000e+002	 2.76055e-001
1415	 1.6337500000e+002	 2.30060e-001
1416	 1.6343750000e+002	 2.57239e-001
1417	 1.6350000000e+002	 2.49369e-001
1418	 1.6356250000e+002	 1.22579e-001
1419	 1.6362500000e+002	 9.37834e-002
1420	 1.6368750000e+002	 2.09186e-001
1421	 1.6375000000e+002	 3.49325e-001
1422	 1.6381250000e+002	 2.02447e-001
1423	 1.6387500000e+002	 1.41436e-001
1424	 1.6393750000e+002	 5.73225e-002
1425	 1.6400000000e+002	 2.00443e-001
1426	 1.6406250000e+002	 3.57331e-001
1427	 1.6412500000e+002	 2.09515e-001
1428	 1.6418750000e+002	 2.13188e-001
1429	 1.6425000000e+002	 3.02182e-001
1430	 1.6431250000e+002	 3.85178e-001
1431	 1.6437500000e+002	 2.16436e-001
1432	 1.6443750000e+002	 1.06933e-001
1433	 1.6450000000e+002	 1.01416e-001
1434	 1.6456250000e+002	 1.53524e-001
1435	 1.6462500000e+002	 3.19689e-001
1436	 1.6468750000e+002	 3.31393e-001
1437	 1.6475000000e+002	 2.20630e-001
1438	 1.6481250000e+002	 1.40020e-001
1439	 1.6487500000e+002	 7.52317e-002
1440	 1.6493750000e+002	 1.57453e-001
1441	 1.6500000000e+002	 1.41826e-001
1442	 1.6506250000e+002	 1.27362e-001
1443	 1.6512500000e+002	 1.13057e-001
1444	 1.6518750000e+002	 1.62191e-001
1445	 1.6525000000e+002	 1.73710e-001
1446	 1.6531250000e+002	 1.64704e-001
1447	 1.6537500000e+002	 1.95645e-001
1448	 1.6543750000e+002	 1.32854e-001
1449	 1.6550000000e+002	 1.27775e-001
1450	 1.6556250000e+002	 9.29452e-002
1451	 1.6562500000e+002	 8.42159e-002
1452	 1.6568750000e+002	 3.17437e-002
1453	 1.6575000000e+002	 6.30920e-002
1454	 1.6581250000e+002	 9.86804e-002
1455	 1.6587500000e+002	 1.14691e-001
1456	 1.6593750000e+002	 3.36400e-002
1457	 1.6600000000e+002	 5.94270e-002
1458	 1.6606250000e+002	 4.84091e-002
1459	 1.6612500000e+002	 9.73223e-002
1460	 1.6618750000e+002	 1.02970e-001
1461	 1.6625000000e+002	 5.59593e-002
1462	 1.6631250000e+002	 1.29239e-001
1463	 1.6637500000e+002	 1.17040e-001
1464	 1.6643750000e+002	 4.56637e-002
1465	 1.6650000000e+002	 2.74045e-002
1466	 1.6656250000e+002	 4.89886e-002
1467	 1.6662500000e+002	 5.69324e-002
1468	 1.6668750000e+002	 6.14404e-002
1469	 1.6675000000e+002	 4.79683e-002
1470	 1.6681250000e+002	 5.30627e-002
1471	 1.6687500000e+002	 7.99811e-002
1472	 1.6693750000e+002	 5.17389e-002
1473	 1.6700000000e+002	 5.11843e-002
1474	 1.6706250000e+002	 7.09057e-002
1475	 1.6712500000e+002	 8.55007e-002
1476	 1.6718750000e+002	 8.74765e-002
1477	 1.6725000000e+002	 6.46483e-002
1478	 1.6731250000e+002	 6.96918e-002
1479	 1.6737500000e+002	 4.82183e-002
1480	 1.6743750000e+002	 6.31676e-002
1481	 1.6750000000e+002	 1.09563e-001
1482	 1.6756250000e+002	 6.76670e-002
1483	 1.6762500000e+002	 2.58651e-002
1484	 1.6768750000e+002	 5.25365e-002
1485	 1.6775000000e+002	 6.97667e-002
1486	 1.6781250000e+002	 5.20999e-002
1487	 1.6787500000e+002	 7.60509e-002
1488	 1.6793750000e+002	 6.20367e-002
1489	 1.6800000000e+002	 6.45049e-002
1490	 1.6806250000e+002	 7.64526e-002
1491	 1.6812500000e+002	 8.32891e-002
1492	 1.6818750000e+002	 1.16498e-001
1493	 1.6825000000e+002	 7.84068e-002
1494	 1.6831250000e+002	 3.54731e-002
1495	 1.6837500000e+002	 3.20628e-002
1496	 1.6843750000e+002	 3.07691e-002
1497	 1.6850000000e+002	 6.14873e-002
1498	 1.6856250000e+002	 5.84157e-002
1499	 1.6862500000e+002	 8.62679e-002
1500	 1.6868750000e+002	 1.81203e-002
1501	 1.6875000000e+002	 2.93305e-002
1502	 1.6881250000e+002	 5.81341e-002
1503	 1.6887500000e+002	 6.49733e-002
1504	 1.6893750000e+002	 8.27952e-002
1505	 1.6900000000e+002	 4.24810e-002
1506	 1.6906250000e+002	 4.28883e-002
1507	 1.6912500000e+002	 5.87724e-002
1508	 1.6918750000e+002	 6.66598e-002
1509	 1.6925000000e+002	 8.74748e-002
1510	 1.6931250000e+002	 1.78924e-001
1511	 1.6937500000e+002	 1.04159e-001
1512	 1.6943750000e+002	 3.44227e-002
1513	 1.6950000000e+002	 5.24408e-002
1514	 1.6956250000e+002	 5.96953e-002
1515	 1.6962500000e+002	 7.78921e-002
1516	 1.6968750000e+002	 5.92433e-002
1517	 1.6975000000e+002	 6.72671e-002
1518	 1.6981250000e+002	 9.66575e-002
1519	 1.6987500000e+002	 1.59582e-001
1520	 1.6993750000e+002	 9.80716e-002
1521	 1.7000000000e+002	 4.25886e-002
1522	 1.7006250000e+002	 3.26235e-002
1523	 1.7012500000e+002	 5.86439e-002
1524	 1.7018750000e+002	 4.83432e-002
1525	 1.7025000000e+002	 2.63025e-002
1526	 1.7031250000e+002	 1.84031e-002
1527	 1.7037500000e+002	 1.81285e-002
1528	 1.7043750000e+002	 2.34202e-002
1529	 1.7050000000e+002	 2.41549e-002
1530	 1.7056250000e+002	 3.77437e-002
1531	 1.7062500000e+002	 5.11163e-002
1532	 1.7068750000e+002	 4.22956e-002
1533	 1.7075000000e+002	 2.64810e-002
1534	 1.7081250000e+002	 1.76193e-002
1535	 1.7087500000e+002	 2.41191e-002
1536	 1.7093750000e+002	 4.88184e-002
1537	 1.7100000000e+002	 2.93389e-002
1538	 1.7106250000e+002	 3.42938e-002
1539	 1.7112500000e+002	 6.64616e-002
1540	 1.7118750000e+002	 7.56488e-002
1541	 1.7125000000e+002	 6.47015e-002
1542	 1.7131250000e+002	 2.94574e-002
1543	 1.7137500000e+002	 2.00573e-002
1544	 1.7143750000e+002	 2.97410e-002
1545	 1.7150000000e+002	 1.36988e-002
1546	 1.7156250000e+002	 2.19698e-002
1547	 1.7162500000e+002	 1.48752e-002
1548	 1.7168750000e+002	 1.00971e-002
1549	 1.7175000000e+002	 7.50641e-003
1550	 1.7181250000e+002	 1.04365e-002
1551	 1.7187500000e+002	 8.74668e-003
1552	 1.7193750000e+002	 8.23632e-003
1553	 1.7200000000e+002	 8.11708e-003
1554	 1.7206250000e+002	 1.75988e-002
1555	 1.7212500000e+002	 3.12849e-002
1556	 1.7218750000e+002	 5.63866e-002
1557	 1.7225000000e+002	 5.32670e-002
1558	 1.7231250000e+002	 2.48435e-002
1559	 1.7237500000e+002	 4.25091e-002
1560	 1.7243750000e+002	 1.66651e-002
1561	 1.7250000000e+002	 6.82934e-003
1562	 1.7256250000e+002	 3.00501e-002
1563	 1.7262500000e+002	 4.50673e-002
1564	 1.7268750000e+002	 4.35939e-002
1565	 1.7275000000e+002	 3.83056e-002
1566	 1.7281250000e+002	 2.12334e-002
1567	 1.7287500000e+002	 1.93706e-002
1568	 1.7293750000e+002	 1.13910e-002
1569	 1.7300000000e+002	 1.06420e-002
1570	 1.7306250000e+002	 1.66396e-002
1571	 1.7312500000e+002	 3.29629e-002
1572	 1.7318750000e+002	 2.66469e-002
1573	 1.7325000000e+002	 4.08370e-002
1574	 1.7331250000e+002	 3.16259e-002
1575	 1.7337500000e+002	 2.09365e-002
1576	 1.7343750000e+002	 2.29518e-002
1577	 1.7350000000e+002	 5.94740e-003
1578	 1.7356250000e+002	 7.73344e-003
1579	 1.7362500000e+002	 1.38725e-002
1580	 1.7368750000e+002	 3.90049e-002
1581	 1.7375000000e+002	 3.44685e-002
1582	 1.7381250000e+002	 3.77794e-002
1583	 1.7387500000e+002	 2.59061e-002
1584	 1.7393750000e+002	 1.56928e-002
1585	 1.7400000000e+002	 1.14275e-002
1586	 1.7406250000e+002	 1.12206e-002
1587	 1.7412500000e+002	 8.88204e-003
1588	 1.7418750000e+002	 1.29131e-002
1589	 1.7425000000e+002	 9.99191e-003
1590	 1.7431250000e+002	 6.37098e-003
1591	 1.7437500000e+002	 1.68938e-002
1592	 1.7443750000e+002	 1.98987e-002
1593	 1.7450000000e+002	 2.50298e-002
1594	 1.7456250000e+002	 1.88792e-002
1595	 1.7462500000e+002	 6.47612e-003
1596	 1.7468750000e+002	 1.78939e-002
1597	 1.7475000000e+002	 3.70751e-002
1598	 1.7481250000e+002	 4.88847e-002
1599	 1.7487500000e+002	 3.85002e-002
1600	 1.7493750000e+002	 1.12922e-002
1601	 1.7500000000e+002	 1.50605e-002
1602	 1.7506250000e+002	 3.51421e-002
1603	 1.7512500000e+002	 3.75986e-002
1604	 1.7518750000e+002	 1.95695e-002
1605	 1.7525000000e+002	 2.49006e-002
1606	 1.7531250000e+002	 2.20972e-002
1607	 1.7537500000e+002	 1.04113e-002
1608	 1.7543750000e+002	 9.08175e-003
1609	 1.7550000000e+002	 6.58968e-003
1610	 1.7556250000e+002	 1.95871e-002
1611	 1.7562500000e+002	 2.82683e-002
1612	 1.7568750000e+002	 6.80203e-003
1613	 1.7575000000e+002	 3.18971e-003
1614	 1.7581250000e+002	 5.36343e-003
1615	 1.7587500000e+002	 1.53906e-002
1616	 1.7593750000e+002	 1.56511e-002
1617	 1.7600000000e+002	 1.75797e-002
1618	 1.7606250000e+002	 3.56758e-002
1619	 1.7612500000e+002	 2.28917e-002
1620	 1.7618750000e+002	 1.29806e-002
1621	 1.7625000000e+002	 1.92762e-002
1622	 1.7631250000e+002	 1.80053e-002
1623	 1.7637500000e+002	 1.03659e-002
1624	 1.7643750000e+002	 2.96251e-002
1625	 1.7650000000e+002	 3.41945e-002
1626	 1.7656250000e+002	 1.17520e-002
1627	 1.7662500000e+002	 9.95058e-003
1628	 1.7668750000e+002	 7.11948e-003
1629	 1.7675000000e+002	 4.81118e-003
1630	 1.7681250000e+002	 8.50530e-003
1631	 1.7687500000e+002	 9.73985e-003
1632	 1.7693750000e+002	 1.98790e-002
1633	 1.7700000000e+002	 2.74242e-002
1634	 1.7706250000e+002	 1.34418e-002
1635	 1.7712500000e+002	 1.37875e-002
1636	 1.7718750000e+002	 1.59619e-002
1637	 1.7725000000e+002	 2.89497e-003
1638	 1.7731250000e+002	 2.63368e-003
1639	 1.7737500000e+002	 1.02356e-002
1640	 1.7743750000e+002	 2.09282e-002
1641	 1.7750000000e+002	 1.36856e-002
1642	 1.7756250000e+002	 4.34900e-003
1643	 1.7762500000e+002	 4.54098e-003
1644	 1.7768750000e+002	 6.18558e-003
1645	 1.7775000000e+002	 1.75162e-002
1646	 1.7781250000e+002	 1.81509e-002
1647	 1.7787500000e+002	 1.16875e-002
1648	 1.7793750000e+002	 1.08814e-002
1649	 1.7800000000e+002	 9.47305e-003
1650	 1.7806250000e+002	 1.57297e-002
1651	 1.7812500000e+002	 2.95574e-002
1652	 1.7818750000e+002	 2.51469e-002
1653	 1.7825000000e+002	 2.32187e-002
1654	 1.7831250000e+002	 1.75999e-002
1655	 1.7837500000e+002	 2.67953e-002
1656	 1.7843750000e+002	 2.26842e-002
1657	 1.7850000000e+002	 2.34095e-002
1658	 1.7856250000e+002	 1.05425e-002
1659	 1.7862500000e+002	 2.63725e-002
1660	 1.7868750000e+002	 1.55996e-002
1661	 1.7875000000e+002	 1.39185e-002
1662	 1.7881250000e+002	 2.17960e-002
1663	 1.7887500000e+002	 1.71525e-002
1664	 1.7893750000e+002	 9.77044e-003
1665	 1.7900000000e+002	 7.03368e-003
1666	 1.7906250000e+002	 6.08823e-003
1667	 1.7912500000e+002	 8.58531e-003
1668	 1.7918750000e+002	 1.05384e-002
1669	 1.7925000000e+002	 2.78136e-002
1670	 1.7931250000e+002	 2.00376e-002
1671	 1.7937500000e+002	 7.59892e-003
1672	 1.7943750000e+002	 1.20473e-002
1673	 1.7950000000e+002	 2.78526e-002
1674	 1.7956250000e+002	 2.02836e-002
1675	 1.7962500000e+002	 2.14841e-002
1676	 1.7968750000e+002	 1.32116e-002
1677	 1.7975000000e+002	 7.34907e-003
1678	 1.7981250000e+002	 1.09125e-002
1679	 1.7987500000e+002	 7.41263e-003
1680	 1.7993750000e+002	 1.15132e-002
1681	 1.8000000000e+002	 6.29824e-003
1682	 1.8006250000e+002	 1.02203e-002
1683	 1.8012500000e+002	 4.17822e-003
1684	 1.8018750000e+002	 4.30625e-003
1685	 1.8025000000e+002	 1.91420e-002
1686	 1.8031250000e+002	 1.19070e-002
1687	 1.8037500000e+002	 8.86692e-003
1688	 1.8043750000e+002	 2.16196e-002
1689	 1.8050000000e+002	 1.23508e-002
1690	 1.8056250000e+002	 1.50124e-002
1691	 1.8062500000e+002	 2.49744e-002
1692	 1.8068750000e+002	 5.03494e-002
1693	 1.8075000000e+002	 4.63885e-002
1694	 1.8081250000e+002	 1.97277e-002
1695	 1.8087500000e+002	 6.01276e-003
1696	 1.8093750000e+002	 7.47567e-003
1697	 1.8100000000e+002	 8.02633e-003
1698	 1.8106250000e+002	 2.23390e-002
1699	 1.8112500000e+002	 2.02285e-002
1700	 1.8118750000e+002	 4.37727e-003
1701	 1.8125000000e+002	 6.11282e-003
1702	 1.8131250000e+002	 1.73563e-002
1703	 1.8137500000e+002	 1.88890e-002
1704	 1.8143750000e+002	 1.59138e-002
1705	 1.8150000000e+002	 3.77555e-002
1706	 1.8156250000e+002	 3.69141e-002
1707	 1.8162500000e+002	 1.16124e-002
1708	 1.8168750000e+002	 9.57695e-003
1709	 1.8175000000e+002	 1.39967e-002
1710	 1.8181250000e+002	 7.82155e-003
1711	 1.8187500000e+002	 2.03820e-002
1712	 1.8193750000e+002	 4.39349e-002
1713	 1.8200000000e+002	 3.56583e-002
1714	 1.8206250000e+002	 2.33492e-002
1715	 1.8212500000e+002	 3.99191e-002
1716	 1.8218750000e+002	 1.39719e-002
1717	 1.8225000000e+002	 9.40450e-003
1718	 1.8231250000e+002	 1.70349e-002
1719	 1.8237500000e+002	 1.05409e-002
1720	 1.8243750000e+002	 7.69241e-003
1721	 1.8250000000e+002	 8.84281e-003
1722	 1.8256250000e+002	 5.38303e-003
1723	 1.8262500000e+002	 2.43871e-002
1724	 1.8268750000e+002	 2.37812e-002
1725	 1.8275000000e+002	 1.48638e-002
1726	 1.8281250000e+002	 1.17482e-002
1727	 1.8287500000e+002	 1.03215e-002
1728	 1.8293750000e+002	 1.14543e-002
1729	 1.8300000000e+002	 2.66321e-002
1730	 1.8306250000e+002	 1.62002e-002
1731	 1.8312500000e+002	 8.94223e-003
1732	 1.8318750000e+002	 1.38947e-002
1733	 1.8325000000e+002	 1.99809e-002
1734	 1.8331250000e+002	 2.15512e-002
1735	 1.8337500000e+002	 4.04803e-003
1736	 1.8343750000e+002	 1.95552e-002
1737	 1.8350000000e+002	 2.04364e-002
1738	 1.8356250000e+002	 2.26062e-002
1739	 1.8362500000e+002	 9.86883e-003
1740	 1.8368750000e+002	 1.86223e-002
1741	 1.8375000000e+002	 1.95904e-002
1742	 1.8381250000e+002	 2.70859e-002
1743	 1.8387500000e+002	 1.36688e-002
1744	 1.8393750000e+002	 1.22060e-002
1745	 1.8400000000e+002	 2.32300e-002
1746	 1.8406250000e+002	 1.77495e-002
1747	 1.8412500000e+002	 2.87983e-002
1748	 1.8418750000e+002	 2.68059e-002
1749	 1.8425000000e+002	 9.59051e-003
1750	 1.8431250000e+002	 1.47429e-002
1751	 1.8437500000e+002	 1.75842e-002
1752	 1.8443750000e+002	 2.14672e-002
1753	 1.8450000000e+002	 7.55246e-003
1754	 1.8456250000e+002	 1.17859e-002
1755	 1.8462500000e+002	 2.62868e-002
1756	 1.8468750000e+002	 1.79661e-002
1757	 1.8475000000e+002	 1.33404e-002
1758	 1.8481250000e+002	 1.67972e-002
1759	 1.8487500000e+002	 1.51670e-002
1760	 1.8493750000e+002	 4.86160e-003
1761	 1.8500000000e+002	 4.66393e-003
1762	 1.8506250000e+002	 7.91606e-003
1763	 1.8512500000e+002	 2.81781e-003
1764	 1.8518750000e+002	 2.54142e-003
1765	 1.8525000000e+002	 4.63185e-003
1766	 1.8531250000e+002	 1.05414e-002
1767	 1.8537500000e+002	 1.84475e-002
1768	 1.8543750000e+002	 2.16089e-002
1769	 1.8550000000e+002	 1.94987e-002
1770	 1.8556250000e+002	 1.05011e-002
1771	 1.8562500000e+002	 7.91254e-003
1772	 1.8568750000e+002	 4.40041e-003
1773	 1.8575000000e+002	 1.23878e-002
1774	 1.8581250000e+002	 1.63788e-002
1775	 1.8587500000e+002	 1.22824e-002
1776	 1.8593750000e+002	 1.07346e-002
1777	 1.8600000000e+002	 1.61449e-002
1778	 1.8606250000e+002	 1.22225e-002
1779	 1.8612500000e+002	 5.54545e-003
1780	 1.8618750000e+002	 9.40173e-003
1781	 1.8625000000e+002	 2.51066e-002
1782	 1.8631250000e+002	 3.21358e-002
1783	 1.8637500000e+002	 3.62455e-002
1784	 1.8643750000e+002	 9.00187e-003
1785	 1.8650000000e+002	 4.95715e-003
1786	 1.8656250000e+002	 1.61296e-002
1787	 1.8662500000e+002	 1.80782e-002
1788	 1.8668750000e+002	 3.71079e-002
1789	 1.8675000000e+002	 3.11303e-002
1790	 1.8681250000e+002	 6.39792e-003
1791	 1.8687500000e+002	 1.06137e-002
1792	 1.8693750000e+002	 1.19825e-002
1793	 1.8700000000e+002	 5.60054e-003
1794	 1.8706250000e+002	 1.90917e-003
1795	 1.8712500000e+002	 1.43753e-002
1796	 1.8718750000e+002	 2.12159e-002
1797	 1.8725000000e+002	 8.81040e-003
1798	 1.8731250000e+002	 1.84532e-002
1799	 1.8737500000e+002	 1.87456e-002
1800	 1.8743750000e+002	 6.36446e-003
1801	 1.8750000000e+002	 3.15524e-003
1802	 1.8756250000e+002	 1.84920e-003
1803	 1.8762500000e+002	 3.35268e-003
1804	 1.8768750000e+002	 9.15641e-003
1805	 1.8775000000e+002	 8.86706e-003
1806	 1.8781250000e+002	 1.29048e-002
1807	 1.8787500000e+002	 1.48634e-002
1808	 1.8793750000e+002	 1.15989e-002
1809	 1.8800000000e+002	 1.03222e-002
1810	 1.8806250000e+002	 1.44768e-002
1811	 1.8812500000e+002	 2.25716e-002
1812	 1.8818750000e+002	 4.52557e-003
1813	 1.8825000000e+002	 1.34398e-002
1814	 1.8831250000e+002	 1.77845e-002
1815	 1.8837500000e+002	 9.50175e-003
1816	 1.8843750000e+002	 5.48166e-003
1817	 1.8850000000e+002	 2.04208e-003
1818	 1.8856250000e+002	 3.11833e-003
1819	 1.8862500000e+002	 9.50078e-003
1820	 1.8868750000e+002	 1.79177e-002
1821	 1.8875000000e+002	 1.02296e-002
1822	 1.8881250000e+002	 1.31657e-002
1823	 1.8887500000e+002	 1.33808e-002
1824	 1.8893750000e+002	 1.53953e-002
1825	 1.8900000000e+002	 1.12672e-002
1826	 1.8906250000e+002	 7.51879e-003
1827	 1.8912500000e+002	 1.14047e-002
1828	 1.8918750000e+002	 1.03842e-002
1829	 1.8925000000e+002	 1.05173e-002
1830	 1.8931250000e+002	 9.90608e-003
1831	 1.8937500000e+002	 2.17896e-002
1832	 1.8943750000e+002	 1.23573e-002
1833	 1.8950000000e+002	 2.12379e-002
1834	 1.8956250000e+002	 1.43451e-002
1835	 1.8962500000e+002	 9.94683e-003
1836	 1.8968750000e+002	 4.53916e-003
1837	 1.8975000000e+002	 6.28295e-003
1838	 1.8981250000e+002	 2.83769e-003
1839	 1.8987500000e+002	 2.67969e-003
1840	 1.8993750000e+002	 7.60098e-003
1841	 1.9000000000e+002	 9.97942e-003
1842	 1.9006250000e+002	 1.06887e-002
1843	 1.9012500000e+002	 1.45710e-002
1844	 1.9018750000e+002	 8.64695e-003
1845	 1.9025000000e+002	 2.68339e-002
1846	 1.9031250000e+002	 2.85265e-002
1847	 1.9037500000e+002	 4.43636e-002
1848	 1.9043750000e+002	 4.17454e-002
1849	 1.9050000000e+002	 1.32071e-002
1850	 1.9056250000e+002	 1.15947e-002
1851	 1.9062500000e+002	 1.90899e-002
1852	 1.9068750000e+002	 1.92324e-002
1853	 1.9075000000e+002	 1.47363e-002
1854	 1.9081250000e+002	 1.01915e-002
1855	 1.9087500000e+002	 1.45668e-002
1856	 1.9093750000e+002	 2.35944e-002
1857	 1.9100000000e+002	 4.14347e-002
1858	 1.9106250000e+002	 1.55462e-002
1859	 1.9112500000e+002	 8.59765e-003
1860	 1.9118750000e+002	 1.32255e-002
1861	 1.9125000000e+002	 1.08031e-002
1862	 1.9131250000e+002	 1.57217e-002
1863	 1.9137500000e+002	 1.01742e-002
1864	 1.9143750000e+002	 1.74765e-002
1865	 1.9150000000e+002	 1.44261e-002
1866	 1.9156250000e+002	 5.30667e-003
1867	 1.9162500000e+002	 8.13759e-003
1868	 1.9168750000e+002	 2.23737e-002
1869	 1.9175000000e+002	 1.61833e-002
1870	 1.9181250000e+002	 9.96483e-003
1871	 1.9187500000e+002	 2.13292e-002
1872	 1.9193750000e+002	 1.02279e-002
1873	 1.9200000000e+002	 1.05951e-002
1874	 1.9206250000e+002	 1.56707e-002
1875	 1.9212500000e+002	 1.17495e-002
1876	 1.9218750000e+002	 3.11038e-002
1877	 1.9225000000e+002	 3.31045e-002
1878	 1.9231250000e+002	 1.76656e-002
1879	 1.9237500000e+002	 1.15066e-002
1880	 1.9243750000e+002	 2.11278e-002
1881	 1.9250000000e+002	 2.68446e-002
1882	 1.9256250000e+002	 1.53359e-002
1883	 1.9262500000e+002	 1.13528e-002
1884	 1.9268750000e+002	 9.16770e-003
1885	 1.9275000000e+002	 1.00859e-002
1886	 1.9281250000e+002	 2.40200e-002
1887	 1.9287500000e+002	 1.46366e-002
1888	 1.9293750000e+002	 9.25618e-003
1889	 1.9300000000e+002	 8.82979e-003
1890	 1.9306250000e+002	 7.15782e-003
1891	 1.9312500000e+002	 1.31395e-002
1892	 1.9318750000e+002	 1.45882e-002
1893	 1.9325000000e+002	 8.96818e-003
1894	 1.9331250000e+002	 2.06940e-002
1895	 1.9337500000e+002	 2.30102e-002
1896	 1.9343750000e+002	 9.55868e-003
1897	 1.9350000000e+002	 1.76622e-002
1898	 1.9356250000e+002	 1.37480e-002
1899	 1.9362500000e+002	 1.76951e-002
1900	 1.9368750000e+002	 2.36535e-002
1901	 1.9375000000e+002	 2.31953e-002
1902	 1.9381250000e+002	 7.17905e-003
1903	 1.9387500000e+002	 5.29746e-003
1904	 1.9393750000e+002	 1.11761e-002
1905	 1.9400000000e+002	 1.06866e-002
1906	 1.9406250000e+002	 7.93460e-003
1907	 1.9412500000e+002	 3.21395e-003
1908	 1.9418750000e+002	 6.53437e-003
1909	 1.9425000000e+002	 8.93849e-003
1910	 1.9431250000e+002	 9.45073e-003
1911	 1.9437500000e+002	 1.16441e-002
1912	 1.9443750000e+002	 2.17334e-002
1913	 1.9450000000e+002	 1.31281e-002
1914	 1.9456250000e+002	 1.56835e-002
1915	 1.9462500000e+002	 1.26199e-002
1916	 1.9468750000e+002	 2.83985e-002
1917	 1.9475000000e+002	 2.24288e-002
1918	 1.9481250000e+002	 1.30074e-002
1919	 1.9487500000e+002	 1.21508e-002
1920	 1.9493750000e+002	 5.30689e-003
1921	 1.9500000000e+002	 1.45887e-002
1922	 1.9506250000e+002	 2.22604e-002
1923	 1.9512500000e+002	 1.34800e-002
1924	 1.9518750000e+002	 8.76859e-003
1925	 1.9525000000e+002	 7.58639e-003
1926	 1.9531250000e+002	 1.27230e-002
1927	 1.9537500000e+002	 1.64933e-002
1928	 1.9543750000e+002	 1.69816e-002
1929	 1.9550000000e+002	 1.91304e-002
1930	 1.9556250000e+002	 1.20465e-002
1931	 1.9562500000e+002	 2.25339e-002
1932	 1.9568750000e+002	 3.07822e-002
1933	 1.9575000000e+002	 7.71561e-003
1934	 1.9581250000e+002	 1.10220e-002
1935	 1.9587500000e+002	 2.16780e-002
1936	 1.9593750000e+002	 1.36794e-002
1937	 1.9600000000e+002	 7.79693e-003
1938	 1.9606250000e+002	 1.01931e-002
1939	 1.9612500000e+002	 8.92421e-003
1940	 1.9618750000e+002	 1.10362e-002
1941	 1.9625000000e+002	 5.58359e-003
1942	 1.9631250000e+002	 7.63907e-003
1943	 1.9637500000e+002	 5.24662e-003
1944	 1.9643750000e+002	 1.52667e-003
1945	 1.9650000000e+002	 4.22506e-003
1946	 1.9656250000e+002	 6.53931e-003
1947	 1.9662500000e+002	 1.63860e-002
1948	 1.9668750000e+002	 2.39474e-002
1949	 1.9675000000e+002	 1.21668e-002
1950	 1.9681250000e+002	 6.73596e-003
1951	 1.9687500000e+002	 5.80904e-003
1952	 1.9693750000e+002	 2.43931e-002
1953	 1.9700000000e+002	 3.04036e-002
1954	 1.9706250000e+002	 1.85264e-002
1955	 1.9712500000e+002	 1.80789e-002
1956	 1.9718750000e+002	 1.85858e-002
1957	 1.9725000000e+002	 1.65427e-002
1958	 1.9731250000e+002	 1.48905e-002
1959	 1.9737500000e+002	 9.40860e-003
1960	 1.9743750000e+002	 1.25149e-002
1961	 1.9750000000e+002	 2.72206e-002
1962	 1.9756250000e+002	 4.19646e-002
1963	 1.9762500000e+002	 2.49505e-002
1964	 1.9768750000e+002	 1.80672e-002
1965	 1.9775000000e+002	 9.89717e-003
1966	 1.9781250000e+002	 6.03234e-003
1967	 1.9787500000e+002	 1.74272e-002
1968	 1.9793750000e+002	 5.59995e-002
1969	 1.9800000000e+002	 2.80996e-002
1970	 1.9806250000e+002	 1.15035e-002
1971	 1.9812500000e+002	 1.43438e-002
1972	 1.9818750000e+002	 1.80026e-002
1973	 1.9825000000e+002	 1.38612e-002
1974	 1.9831250000e+002	 1.85117e-002
1975	 1.9837500000e+002	 2.67211e-002
1976	 1.9843750000e+002	 2.58599e-002
1977	 1.9850000000e+002	 8.22961e-003
1978	 1.9856250000e+002	 9.48946e-003
1979	 1.9862500000e+002	 9.68198e-003
1980	 1.9868750000e+002	 7.53477e-003
1981	 1.9875000000e+002	 2.44804e-002
1982	 1.9881250000e+002	 3.33082e-002
1983	 1.9887500000e+002	 1.86175e-002
1984	 1.9893750000e+002	 1.87069e-002
1985	 1.9900000000e+002	 2.86472e-002
1986	 1.9906250000e+002	 2.98322e-002
1987	 1.9912500000e+002	 1.60985e-002
1988	 1.9918750000e+002	 1.85475e-002
1989	 1.9925000000e+002	 3.34687e-002
1990	 1.9931250000e+002	 9.74308e-003
1991	 1.9937500000e+002	 1.75609e-002
1992	 1.9943750000e+002	 2.27269e-002
1993	 1.9950000000e+002	 1.82707e-002
1994	 1.9956250000e+002	 1.17344e-002
1995	 1.9962500000e+002	 1.75100e-002
1996	 1.9968750000e+002	 1.21219e-002
1997	 1.9975000000e+002	 6.03444e-003
1998	 1.9981250000e+002	 1.35163e-002
1999	 1.9987500000e+002	 3.98331e-002
2000	 1.9993750000e+002	 2.80463e-002
2001	 2.0000000000e+002	 9.34092e-003
2002	 2.0006250000e+002	 1.60590e-002
2003	 2.0012500000e+002	 2.66344e-002
2004	 2.0018750000e+002	 2.43020e-002
2005	 2.0025000000e+002	 4.66753e-002
2006	 2.0031250000e+002	 2.31027e-002
2007	 2.0037500000e+002	 1.10264e-002
2008	 2.0043750000e+002	 9.63586e-003
2009	 2.0050000000e+002	 1.25661e-002
2010	 2.0056250000e+002	 1.00314e-002
2011	 2.0062500000e+002	 7.93754e-003
2012	 2.0068750000e+002	 1.55332e-002
2013	 2.0075000000e+002	 1.10046e-002
2014	 2.0081250000e+002	 8.45553e-003
2015	 2.0087500000e+002	 1.15910e-002
2016	 2.0093750000e+002	 1.86218e-002
2017	 2.0100000000e+002	 2.96778e-002
2018	 2.0106250000e+002	 1.31419e-002
2019	 2.0112500000e+002	 1.40467e-002
2020	 2.0118750000e+002	 1.98818e-002
2021	 2.0125000000e+002	 1.81584e-002
2022	 2.0131250000e+002	 1.17584e-002
2023	 2.0137500000e+002	 2.12704e-002
2024	 2.0143750000e+002	 9.97437e-003
2025	 2.0150000000e+002	 7.85187e-003
2026	 2.0156250000e+002	 1.77148e-002
2027	 2.0162500000e+002	 2.05356e-002
2028	 2.0168750000e+002	 4.90129e-002
2029	 2.0175000000e+002	 3.47082e-002
2030	 2.0181250000e+002	 2.81658e-002
2031	 2.0187500000e+002	 5.00308e-002
2032	 2.0193750000e+002	 2.43996e-002
2033	 2.0200000000e+002	 3.58380e-002
2034	 2.0206250000e+002	 3.14634e-002
2035	 2.0212500000e+002	 1.60864e-002
2036	 2.0218750000e+002	 2.75969e-002
2037	 2.0225000000e+002	 1.95777e-002
2038	 2.0231250000e+002	 3.15715e-002
2039	 2.0237500000e+002	 7.14597e-002
2040	 2.0243750000e+002	 5.62069e-002
2041	 2.0250000000e+002	 5.45841e-002
2042	 2.0256250000e+002	 2.97294e-002
2043	 2.0262500000e+002	 3.64838e-002
2044	 2.0268750000e+002	 2.03681e-002
2045	 2.0275000000e+002	 1.27223e-002
2046	 2.0281250000e+002	 3.18895e-002
2047	 2.0287500000e+002	 2.24514e-002
2048	 2.0293750000e+002	 2.49810e-002
2049	 2.0300000000e+002	 5.57770e-002
2050	 2.0306250000e+002	 3.75669e-002
2051	 2.0312500000e+002	 1.67409e-002
2052	 2.0318750000e+002	 2.16348e-002
2053	 2.0325000000e+002	 5.65629e-002
2054	 2.0331250000e+002	 5.06886e-002
2055	 2.0337500000e+002	 1.97951e-002
2056	 2.0343750000e+002	 1.21333e-002
2057	 2.0350000000e+002	 1.83987e-002
2058	 2.0356250000e+002	 5.15260e-002
2059	 2.0362500000e+002	 4.84594e-002
2060	 2.0368750000e+002	 1.88783e-002
2061	 2.0375000000e+002	 9.81243e-003
2062	 2.0381250000e+002	 2.85105e-002
2063	 2.0387500000e+002	 2.38807e-002
2064	 2.0393750000e+002	 2.09197e-002
2065	 2.0400000000e+002	 2.64681e-002
2066	 2.0406250000e+002	 6.17045e-002
2067	 2.0412500000e+002	 7.85495e-002
2068	 2.0418750000e+002	 5.00228e-002
2069	 2.0425000000e+002	 3.83740e-002
2070	 2.0431250000e+002	 2.87351e-002
2071	 2.0437500000e+002	 1.87526e-002
2072	 2.0443750000e+002	 1.22321e-002
2073	 2.0450000000e+002	 1.71968e-002
2074	 2.0456250000e+002	 2.15342e-002
2075	 2.0462500000e+002	 1.33372e-002
2076	 2.0468750000e+002	 9.37313e-003
2077	 2.0475000000e+002	 4.85067e-003
2078	 2.0481250000e+002	 2.95909e-002
2079	 2.0487500000e+002	 4.05638e-002
2080	 2.0493750000e+002	 2.12381e-002
2081	 2.0500000000e+002	 1.72906e-002
2082	 2.0506250000e+002	 2.40550e-002
2083	 2.0512500000e+002	 2.90182e-002
2084	 2.0518750000e+002	 5.74968e-002
2085	 2.0525000000e+002	 1.16349e-001
2086	 2.0531250000e+002	 6.35516e-002
2087	 2.0537500000e+002	 4.35865e-002
2088	 2.0543750000e+002	 2.65581e-002
2089	 2.0550000000e+002	 4.93079e-003
2090	 2.0556250000e+002	 2.87982e-002
2091	 2.0562500000e+002	 3.49733e-002
2092	 2.0568750000e+002	 4.08493e-002
2093	 2.0575000000e+002	 4.29665e-002
2094	 2.0581250000e+002	 2.61396e-002
2095	 2.0587500000e+002	 2.17720e-002
2096	 2.0593750000e+002	 3.90005e-002
2097	 2.0600000000e+002	 4.30503e-002
2098	 2.0606250000e+002	 3.21488e-002
2099	 2.0612500000e+002	 2.88314e-002
2100	 2.0618750000e+002	 4.13288e-002
2101	 2.0625000000e+002	 5.11874e-002
2102	 2.0631250000e+002	 5.12665e-002
2103	 2.0637500000e+002	 4.55652e-002
2104	 2.0643750000e+002	 1.81949e-002
2105	 2.0650000000e+002	 4.69644e-002
2106	 2.0656250000e+002	 2.67163e-002
2107	 2.0662500000e+002	 2.71326e-002
2108	 2.0668750000e+002	 1.11331e-001
2109	 2.0675000000e+002	 8.59955e-002
2110	 2.0681250000e+002	 7.86752e-002
2111	 2.0687500000e+002	 8.15458e-002
2112	 2.0693750000e+002	 3.63151e-002
2113	 2.0700000000e+002	 6.22246e-002
2114	 2.0706250000e+002	 1.04969e-001
2115	 2.0712500000e+002	 3.71353e-002
2116	 2.0718750000e+002	 1.52964e-002
2117	 2.0725000000e+002	 2.22093e-002
2118	 2.0731250000e+002	 7.12497e-002
2119	 2.0737500000e+002	 9.69848e-002
2120	 2.0743750000e+002	 3.82682e-002
2121	 2.0750000000e+002	 2.64231e-002
2122	 2.0756250000e+002	 7.17056e-002
2123	 2.0762500000e+002	 5.87739e-002
2124	 2.0768750000e+002	 1.31223e-002
2125	 2.0775000000e+002	 1.10948e-002
2126	 2.0781250000e+002	 4.35828e-002
2127	 2.0787500000e+002	 1.24718e-001
2128	 2.0793750000e+002	 1.41858e-001
2129	 2.0800000000e+002	 1.44820e-001
2130	 2.0806250000e+002	 6.85504e-002
2131	 2.0812500000e+002	 2.34041e-002
2132	 2.0818750000e+002	 6.32497e-002
2133	 2.0825000000e+002	 6.20250e-002
2134	 2.0831250000e+002	 3.63452e-002
2135	 2.0837500000e+002	 2.76427e-002
2136	 2.0843750000e+002	 3.90577e-002
2137	 2.0850000000e+002	 8.25692e-002
2138	 2.0856250000e+002	 1.19658e-001
2139	 2.0862500000e+002	 8.76182e-002
2140	 2.0868750000e+002	 1.14507e-001
2141	 2.0875000000e+002	 1.19036e-001
2142	 2.0881250000e+002	 9.16909e-002
2143	 2.0887500000e+002	 8.95822e-002
2144	 2.0893750000e+002	 6.99131e-002
2145	 2.0900000000e+002	 2.77596e-002
2146	 2.0906250000e+002	 1.89937e-002
2147	 2.0912500000e+002	 1.11695e-001
2148	 2.0918750000e+002	 2.92983e-001
2149	 2.0925000000e+002	 2.36440e-001
2150	 2.0931250000e+002	 4.57125e-002
2151	 2.0937500000e+002	 9.10891e-002
2152	 2.0943750000e+002	 9.63840e-002
2153	 2.0950000000e+002	 7.49227e-002
2154	 2.0956250000e+002	 1.23885e-001
2155	 2.0962500000e+002	 8.96261e-002
2156	 2.0968750000e+002	 1.42404e-001
2157	 2.0975000000e+002	 9.33686e-002
2158	 2.0981250000e+002	 1.29545e-002
2159	 2.0987500000e+002	 1.29797e-002
2160	 2.0993750000e+002	 5.48950e-002
2161	 2.1000000000e+002	 1.46739e-001
2162	 2.1006250000e+002	 1.10915e-001
2163	 2.1012500000e+002	 3.02177e-002
2164	 2.1018750000e+002	 4.02020e-002
2165	 2.1025000000e+002	 1.00452e-001
2166	 2.1031250000e+002	 1.74435e-001
2167	 2.1037500000e+002	 1.68417e-001
2168	 2.1043750000e+002	 7.07998e-002
2169	 2.1050000000e+002	 1.12434e-001
2170	 2.1056250000e+002	 2.12784e-001
2171	 2.1062500000e+002	 8.25045e-002
2172	 2.1068750000e+002	 1.98299e-001
2173	 2.1075000000e+002	 2.38334e-001
2174	 2.1081250000e+002	 6.77344e-002
2175	 2.1087500000e+002	 2.26376e-001
2176	 2.1093750000e+002	 4.53016e-001
2177	 2.1100000000e+002	 3.17821e-001
2178	 2.1106250000e+002	 1.23960e-001
2179	 2.1112500000e+002	 7.61364e-002
2180	 2.1118750000e+002	 1.35602e-001
2181	 2.1125000000e+002	 1.32157e-001
2182	 2.1131250000e+002	 1.02963e-001
2183	 2.1137500000e+002	 1.81445e-001
2184	 2.1143750000e+002	 3.44644e-001
2185	 2.1150000000e+002	 2.73058e-001
2186	 2.1156250000e+002	 4.31971e-001
2187	 2.1162500000e+002	 4.52496e-001
2188	 2.1168750000e+002	 4.36116e-001
2189	 2.1175000000e+002	 2.79145e-001
2190	 2.1181250000e+002	 3.98554e-001
2191	 2.1187500000e+002	 3.60393e-001
2192	 2.1193750000e+002	 1.65928e-001
2193	 2.1200000000e+002	 1.45090e-001
2194	 2.1206250000e+002	 2.78500e-001
2195	 2.1212500000e+002	 2.43096e-001
2196	 2.1218750000e+002	 1.07217e-001
2197	 2.1225000000e+002	 9.71628e-002
2198	 2.1231250000e+002	 1.92608e-001
2199	 2.1237500000e+002	 2.84312e-001
2200	 2.1243750000e+002	 2.11840e-001
2201	 2.1250000000e+002	 2.47567e-001
2202	 2.1256250000e+002	 2.98863e-001
2203	 2.1262500000e+002	 4.08701e-001
2204	 2.1268750000e+002	 5.86122e-001
2205	 2.1275000000e+002	 1.80001e-001
2206	 2.1281250000e+002	 1.35812e-001
2207	 2.1287500000e+002	 2.76568e-001
2208	 2.1293750000e+002	 1.83074e-001
2209	 2.1300000000e+002	 5.07070e-001
2210	 2.1306250000e+002	 6.86149e-001
2211	 2.1312500000e+002	 2.24513e-001
2212	 2.1318750000e+002	 2.41324e-001
2213	 2.1325000000e+002	 1.93851e-001
2214	 2.1331250000e+002	 5.18414e-001
2215	 2.1337500000e+002	 6.55888e-001
2216	 2.1343750000e+002	 6.68960e-001
2217	 2.1350000000e+002	 6.28784e-001
2218	 2.1356250000e+002	 5.81406e-001
2219	 2.1362500000e+002	 9.29953e-001
2220	 2.1368750000e+002	 5.05186e-001
2221	 2.1375000000e+002	 3.04330e-001
2222	 2.1381250000e+002	 5.55235e-001
2223	 2.1387500000e+002	 6.09503e-001
2224	 2.1393750000e+002	 4.11653e-001
2225	 2.1400000000e+002	 2.28319e-001
2226	 2.1406250000e+002	 3.77518e-001
2227	 2.1412500000e+002	 5.73340e-001
2228	 2.1418750000e+002	 4.82158e-001
2229	 2.1425000000e+002	 1.23237e+000
2230	 2.1431250000e+002	 1.03050e+000
2231	 2.1437500000e+002	 4.50471e-001
2232	 2.1443750000e+002	 5.66815e-001
2233	 2.1450000000e+002	 4.24020e-001
2234	 2.1456250000e+002	 1.78112e-001
2235	 2.1462500000e+002	 5.74864e-001
2236	 2.1468750000e+002	 9.20390e-001
2237	 2.1475000000e+002	 2.17068e-001
2238	 2.1481250000e+002	 9.38504e-002
2239	 2.1487500000e+002	 1.42197e-001
2240	 2.1493750000e+002	 6.63667e-001
2241	 2.1500000000e+002	 5.67471e-001
2242	 2.1506250000e+002	 2.64712e-001
2243	 2.1512500000e+002	 2.23724e-001
2244	 2.1518750000e+002	 3.87744e-001
2245	 2.1525000000e+002	 3.09343e-001
2246	 2.1531250000e+002	 4.99000e-001
2247	 2.1537500000e+002	 3.64719e-001
2248	 2.1543750000e+002	 3.86268e-001
2249	 2.1550000000e+002	 1.57275e-001
2250	 2.1556250000e+002	 1.12634e-001
2251	 2.1562500000e+002	 2.55910e-001
2252	 2.1568750000e+002	 3.27531e-001
2253	 2.1575000000e+002	 2.27390e-001
2254	 2.1581250000e+002	 1.07154e-001
2255	 2.1587500000e+002	 3.22408e-001
2256	 2.1593750000e+002	 2.38073e-001
2257	 2.1600000000e+002	 3.07512e-001
2258	 2.1606250000e+002	 4.39547e-001
2259	 2.1612500000e+002	 3.97136e-001
2260	 2.1618750000e+002	 1.61085e-001
2261	 2.1625000000e+002	 1.16964e-001
2262	 2.1631250000e+002	 1.52098e-001
2263	 2.1637500000e+002	 5.15649e-001
2264	 2.1643750000e+002	 6.25990e-001
2265	 2.1650000000e+002	 2.37603e-001
2266	 2.1656250000e+002	 1.50835e-001
2267	 2.1662500000e+002	 1.16656e-001
2268	 2.1668750000e+002	 5.22132e-002
2269	 2.1675000000e+002	 1.20912e-001
2270	 2.1681250000e+002	 2.70445e-001
2271	 2.1687500000e+002	 2.94794e-001
2272	 2.1693750000e+002	 3.01649e-001
2273	 2.1700000000e+002	 4.59898e-001
2274	 2.1706250000e+002	 4.90938e-001
2275	 2.1712500000e+002	 1.20708e-001
2276	 2.1718750000e+002	 3.21481e-002
2277	 2.1725000000e+002	 1.40132e-001
2278	 2.1731250000e+002	 2.46657e-001
2279	 2.1737500000e+002	 1.69641e-001
2280	 2.1743750000e+002	 2.85498e-001
2281	 2.1750000000e+002	 2.80359e-001
2282	 2.1756250000e+002	 1.57592e-001
2283	 2.1762500000e+002	 1.95372e-001
2284	 2.1768750000e+002	 8.00369e-002
2285	 2.1775000000e+002	 1.61276e-001
2286	 2.1781250000e+002	 1.68673e-001
2287	 2.1787500000e+002	 3.02132e-002
2288	 2.1793750000e+002	 1.46611e-001
2289	 2.1800000000e+002	 2.40544e-001
2290	 2.1806250000e+002	 1.09878e-001
2291	 2.1812500000e+002	 1.28909e-001
2292	 2.1818750000e+002	 1.05112e-001
2293	 2.1825000000e+002	 1.55068e-001
2294	 2.1831250000e+002	 1.78119e-001
2295	 2.1837500000e+002	 2.13706e-001
2296	 2.1843750000e+002	 1.14027e-001
2297	 2.1850000000e+002	 9.77076e-002
2298	 2.1856250000e+002	 3.83516e-002
2299	 2.1862500000e+002	 3.72211e-002
2300	 2.1868750000e+002	 9.55319e-002
2301	 2.1875000000e+002	 1.18760e-001
2302	 2.1881250000e+002	 1.00044e-001
2303	 2.1887500000e+002	 5.25450e-002
2304	 2.1893750000e+002	 1.32538e-001
2305	 2.1900000000e+002	 1.67039e-001
2306	 2.1906250000e+002	 1.51363e-001
2307	 2.1912500000e+002	 8.51614e-002
2308	 2.1918750000e+002	 1.10758e-001
2309	 2.1925000000e+002	 1.95622e-001
2310	 2.1931250000e+002	 1.00291e-001
2311	 2.1937500000e+002	 8.12993e-002
2312	 2.1943750000e+002	 7.86882e-002
2313	 2.1950000000e+002	 6.34308e-002
2314	 2.1956250000e+002	 8.09880e-002
2315	 2.1962500000e+002	 1.02287e-001
2316	 2.1968750000e+002	 1.13708e-001
2317	 2.1975000000e+002	 4.76391e-002
2318	 2.1981250000e+002	 6.15934e-002
2319	 2.1987500000e+002	 3.79904e-002
2320	 2.1993750000e+002	 4.66459e-002
2321	 2.2000000000e+002	 6.32534e-002
2322	 2.2006250000e+002	 5.47532e-002
2323	 2.2012500000e+002	 9.22785e-002
2324	 2.2018750000e+002	 9.94799e-002
2325	 2.2025000000e+002	 4.22533e-002
2326	 2.2031250000e+002	 6.00510e-002
2327	 2.2037500000e+002	 7.31568e-002
2328	 2.2043750000e+002	 1.26766e-001
2329	 2.2050000000e+002	 6.74753e-002
2330	 2.2056250000e+002	 4.70671e-002
2331	 2.2062500000e+002	 5.31343e-002
2332	 2.2068750000e+002	 7.71296e-002
2333	 2.2075000000e+002	 8.73785e-002
2334	 2.2081250000e+002	 1.06916e-001
2335	 2.2087500000e+002	 1.28756e-001
2336	 2.2093750000e+002	 9.27075e-002
2337	 2.2100000000e+002	 6.71333e-002
2338	 2.2106250000e+002	 1.32891e-001
2339	 2.2112500000e+002	 7.38187e-002
2340	 2.2118750000e+002	 2.33223e-002
2341	 2.2125000000e+002	 2.87935e-002
2342	 2.2131250000e+002	 5.17644e-002
2343	 2.2137500000e+002	 3.44547e-002
2344	 2.2143750000e+002	 4.19934e-002
2345	 2.2150000000e+002	 4.02017e-002
2346	 2.2156250000e+002	 2.69610e-002
2347	 2.2162500000e+002	 2.15743e-002
2348	 2.2168750000e+002	 5.74258e-002
2349	 2.2175000000e+002	 2.21328e-002
2350	 2.2181250000e+002	 4.15670e-002
2351	 2.2187500000e+002	 4.69468e-002
2352	 2.2193750000e+002	 2.64160e-002
2353	 2.2200000000e+002	 2.74801e-002
2354	 2.2206250000e+002	 2.43099e-002
2355	 2.2212500000e+002	 6.05717e-002
2356	 2.2218750000e+002	 6.33895e-002
2357	 2.2225000000e+002	 1.50184e-002
2358	 2.2231250000e+002	 1.93259e-002
2359	 2.2237500000e+002	 3.28706e-002
2360	 2.2243750000e+002	 3.10536e-002
2361	 2.2250000000e+002	 3.48988e-002
2362	 2.2256250000e+002	 3.76715e-002
2363	 2.2262500000e+002	 3.67832e-002
2364	 2.2268750000e+002	 2.71111e-002
2365	 2.2275000000e+002	 2.56670e-002
2366	 2.2281250000e+002	 1.67536e-002
2367	 2.2287500000e+002	 3.00285e-002
2368	 2.2293750000e+002	 4.77978e-002
2369	 2.2300000000e+002	 2.14520e-002
2370	 2.2306250000e+002	 2.85018e-003
2371	 2.2312500000e+002	 1.97786e-002
2372	 2.2318750000e+002	 4.88629e-002
2373	 2.2325000000e+002	 4.05957e-002
2374	 2.2331250000e+002	 3.93654e-002
2375	 2.2337500000e+002	 5.51036e-002
2376	 2.2343750000e+002	 3.34294e-002
2377	 2.2350000000e+002	 6.72862e-002
2378	 2.2356250000e+002	 5.03249e-002
2379	 2.2362500000e+002	 3.24144e-002
2380	 2.2368750000e+002	 3.79642e-002
2381	 2.2375000000e+002	 3.16228e-002
2382	 2.2381250000e+002	 9.87980e-003
2383	 2.2387500000e+002	 1.81934e-002
2384	 2.2393750000e+002	 5.02335e-002
2385	 2.2400000000e+002	 4.20182e-002
2386	 2.2406250000e+002	 2.36999e-002
2387	 2.2412500000e+002	 2.51269e-002
2388	 2.2418750000e+002	 3.66200e-002
2389	 2.2425000000e+002	 1.81611e-002
2390	 2.2431250000e+002	 1.26076e-002
2391	 2.2437500000e+002	 1.63977e-002
2392	 2.2443750000e+002	 1.45996e-002
2393	 2.2450000000e+002	 2.63365e-002
2394	 2.2456250000e+002	 2.13193e-002
2395	 2.2462500000e+002	 3.26588e-002
2396	 2.2468750000e+002	 4.88583e-002
2397	 2.2475000000e+002	 3.57952e-002
2398	 2.2481250000e+002	 9.54490e-002
2399	 2.2487500000e+002	 7.04063e-002
2400	 2.2493750000e+002	 1.90705e-002
2401	 2.2500000000e+002	 9.02662e-003
2402	 2.2506250000e+002	 1.19323e-002
2403	 2.2512500000e+002	 2.59665e-002
2404	 2.2518750000e+002	 1.98794e-002
2405	 2.2525000000e+002	 5.77343e-002
2406	 2.2531250000e+002	 3.89483e-002
2407	 2.2537500000e+002	 8.69195e-003
2408	 2.2543750000e+002	 9.20491e-003
2409	 2.2550000000e+002	 1.86124e-002
2410	 2.2556250000e+002	 2.87496e-002
2411	 2.2562500000e+002	 2.73457e-002
2412	 2.2568750000e+002	 4.32364e-002
2413	 2.2575000000e+002	 4.57186e-002
2414	 2.2581250000e+002	 3.39147e-002
2415	 2.2587500000e+002	 2.67785e-002
2416	 2.2593750000e+002	 3.97328e-002
2417	 2.2600000000e+002	 1.74234e-002
2418	 2.2606250000e+002	 2.68725e-002
2419	 2.2612500000e+002	 3.02237e-002
2420	 2.2618750000e+002	 1.88130e-002
2421	 2.2625000000e+002	 1.90761e-002
2422	 2.2631250000e+002	 2.75924e-002
2423	 2.2637500000e+002	 2.26649e-002
2424	 2.2643750000e+002	 2.49435e-002
2425	 2.2650000000e+002	 1.03921e-002
2426	 2.2656250000e+002	 2.86894e-002
2427	 2.2662500000e+002	 2.08868e-002
2428	 2.2668750000e+002	 3.94132e-003
2429	 2.2675000000e+002	 3.09917e-003
2430	 2.2681250000e+002	 8.41449e-003
2431	 2.2687500000e+002	 1.69140e-002
2432	 2.2693750000e+002	 2.90572e-002
2433	 2.2700000000e+002	 2.05978e-002
2434	 2.2706250000e+002	 1.44304e-002
2435	 2.2712500000e+002	 8.66679e-003
2436	 2.2718750000e+002	 1.75324e-002
2437	 2.2725000000e+002	 1.26867e-002
2438	 2.2731250000e+002	 9.83694e-003
2439	 2.2737500000e+002	 1.25278e-002
2440	 2.2743750000e+002	 1.03900e-002
2441	 2.2750000000e+002	 7.27433e-003
2442	 2.2756250000e+002	 1.33899e-002
2443	 2.2762500000e+002	 1.33448e-002
2444	 2.2768750000e+002	 4.66723e-002
2445	 2.2775000000e+002	 3.13134e-002
2446	 2.2781250000e+002	 1.73710e-002
2447	 2.2787500000e+002	 3.35335e-002
2448	 2.2793750000e+002	 4.31226e-002
2449	 2.2800000000e+002	 3.18233e-002
2450	 2.2806250000e+002	 1.51141e-002
2451	 2.2812500000e+002	 1.66939e-002
2452	 2.2818750000e+002	 2.70484e-002
2453	 2.2825000000e+002	 9.30548e-003
2454	 2.2831250000e+002	 1.53896e-002
2455	 2.2837500000e+002	 1.73481e-002
2456	 2.2843750000e+002	 2.44867e-002
2457	 2.2850000000e+002	 1.51624e-002
2458	 2.2856250000e+002	 5.38831e-003
2459	 2.2862500000e+002	 7.42184e-003
2460	 2.2868750000e+002	 6.28329e-003
2461	 2.2875000000e+002	 1.23609e-002
2462	 2.2881250000e+002	 1.49634e-002
2463	 2.2887500000e+002	 2.39549e-002
2464	 2.2893750000e+002	 2.07660e-002
2465	 2.2900000000e+002	 1.05133e-002
2466	 2.2906250000e+002	 8.02265e-003
2467	 2.2912500000e+002	 1.00789e-002
2468	 2.2918750000e+002	 1.05047e-002
2469	 2.2925000000e+002	 1.16217e-002
2470	 2.2931250000e+002	 9.54059e-003
2471	 2.2937500000e+002	 5.31770e-003
2472	 2.2943750000e+002	 7.85071e-003
2473	 2.2950000000e+002	 5.66670e-003
2474	 2.2956250000e+002	 7.53464e-003
2475	 2.2962500000e+002	 1.40591e-002
2476	 2.2968750000e+002	 8.75965e-003
2477	 2.2975000000e+002	 5.30241e-003
2478	 2.2981250000e+002	 5.66563e-003
2479	 2.2987500000e+002	 8.80299e-003
2480	 2.2993750000e+002	 2.03980e-002
2481	 2.3000000000e+002	 1.43418e-002
2482	 2.3006250000e+002	 1.56217e-002
2483	 2.3012500000e+002	 1.21189e-002
2484	 2.3018750000e+002	 3.11000e-002
2485	 2.3025000000e+002	 2.25913e-002
2486	 2.3031250000e+002	 9.62400e-003
2487	 2.3037500000e+002	 3.98233e-003
2488	 2.3043750000e+002	 9.97302e-003
2489	 2.3050000000e+002	 5.72849e-003
2490	 2.3056250000e+002	 3.52841e-003
2491	 2.3062500000e+002	 5.70018e-003
2492	 2.3068750000e+002	 9.90671e-003
2493	 2.3075000000e+002	 6.37881e-003
2494	 2.3081250000e+002	 4.92914e-003
2495	 2.3087500000e+002	 3.37758e-003
2496	 2.3093750000e+002	 3.99751e-003
2497	 2.3100000000e+002	 7.91206e-003
2498	 2.3106250000e+002	 1.09281e-002
2499	 2.3112500000e+002	 1.16247e-002
2500	 2.3118750000e+002	 7.41120e-003
2501	 2.3125000000e+002	 7.43638e-003
2502	 2.3131250000e+002	 6.51210e-003
2503	 2.3137500000e+002	 9.70782e-003
2504	 2.3143750000e+002	 1.72979e-002
2505	 2.3150000000e+002	 2.31968e-002
2506	 2.3156250000e+002	 1.42512e-002
2507	 2.3162500000e+002	 1.23996e-002
2508	 2.3168750000e+002	 3.00362e-002
2509	 2.3175000000e+002	 2.51778e-002
2510	 2.3181250000e+002	 7.16412e-003
2511	 2.3187500000e+002	 1.23001e-002
2512	 2.3193750000e+002	 1.06981e-002
2513	 2.3200000000e+002	 2.90030e-003
2514	 2.3206250000e+002	 4.37899e-003
2515	 2.3212500000e+002	 5.58530e-003
2516	 2.3218750000e+002	 9.66712e-003
2517	 2.3225000000e+002	 2.73599e-002
2518	 2.3231250000e+002	 2.64223e-002
2519	 2.3237500000e+002	 1.67099e-002
2520	 2.3243750000e+002	 1.15718e-002
2521	 2.3250000000e+002	 9.76008e-003
2522	 2.3256250000e+002	 1.00134e-002
2523	 2.3262500000e+002	 7.55861e-003
2524	 2.3268750000e+002	 9.03235e-003
2525	 2.3275000000e+002	 5.43156e-003
2526	 2.3281250000e+002	 3.49139e-003
2527	 2.3287500000e+002	 6.08329e-003
2528	 2.3293750000e+002	 9.93978e-003
2529	 2.3300000000e+002	 8.47225e-003
2530	 2.3306250000e+002	 3.51032e-003
2531	 2.3312500000e+002	 4.64417e-003
2532	 2.3318750000e+002	 6.56254e-003
2533	 2.3325000000e+002	 6.62822e-003
2534	 2.3331250000e+002	 1.20151e-002
2535	 2.3337500000e+002	 4.19923e-003
2536	 2.3343750000e+002	 1.00704e-002
2537	 2.3350000000e+002	 2.96522e-002
2538	 2.3356250000e+002	 1.97198e-002
2539	 2.3362500000e+002	 5.71740e-003
2540	 2.3368750000e+002	 3.66902e-003
2541	 2.3375000000e+002	 6.77775e-003
2542	 2.3381250000e+002	 1.09965e-002
2543	 2.3387500000e+002	 9.18249e-003
2544	 2.3393750000e+002	 6.60269e-003
2545	 2.3400000000e+002	 9.74600e-003
2546	 2.3406250000e+002	 7.34664e-003
2547	 2.3412500000e+002	 6.49531e-003
2548	 2.3418750000e+002	 6.74286e-003
2549	 2.3425000000e+002	 9.24807e-003
2550	 2.3431250000e+002	 4.73144e-003
2551	 2.3437500000e+002	 6.29673e-003
2552	 2.3443750000e+002	 1.03292e-002
2553	 2.3450000000e+002	 1.21441e-002
2554	 2.3456250000e+002	 8.49670e-003
2555	 2.3462500000e+002	 1.42242e-002
2556	 2.3468750000e+002	 1.17404e-002
2557	 2.3475000000e+002	 6.38141e-003
2558	 2.3481250000e+002	 9.28512e-003
2559	 2.3487500000e+002	 8.18045e-003
2560	 2.3493750000e+002	 2.09972e-002
2561	 2.3500000000e+002	 8.47591e-003
2562	 2.3506250000e+002	 7.02058e-003
2563	 2.3512500000e+002	 8.48556e-003
2564	 2.3518750000e+002	 5.70212e-003
2565	 2.3525000000e+002	 6.83980e-003
2566	 2.3531250000e+002	 1.06260e-002
2567	 2.3537500000e+002	 8.11643e-003
2568	 2.3543750000e+002	 8.38216e-003
2569	 2.3550000000e+002	 1.32803e-002
2570	 2.3556250000e+002	 8.62272e-003
2571	 2.3562500000e+002	 8.16076e-003
2572	 2.3568750000e+002	 4.65654e-003
2573	 2.3575000000e+002	 1.13938e-002
2574	 2.3581250000e+002	 2.52239e-002
2575	 2.3587500000e+002	 1.82266e-002
2576	 2.3593750000e+002	 6.78376e-003
2577	 2.3600000000e+002	 3.21762e-003
2578	 2.3606250000e+002	 4.87845e-003
2579	 2.3612500000e+002	 5.61950e-003
2580	 2.3618750000e+002	 7.98433e-003
2581	 2.3625000000e+002	 7.05342e-003
2582	 2.3631250000e+002	 4.04972e-003
2583	 2.3637500000e+002	 1.04466e-002
2584	 2.3643750000e+002	 1.64186e-002
2585	 2.3650000000e+002	 1.02864e-002
2586	 2.3656250000e+002	 1.32859e-002
2587	 2.3662500000e+002	 6.09221e-003
2588	 2.3668750000e+002	 6.55002e-003
2589	 2.3675000000e+002	 8.51320e-003
2590	 2.3681250000e+002	 5.72571e-003
2591	 2.3687500000e+002	 3.64058e-003
2592	 2.3693750000e+002	 9.56073e-003
2593	 2.3700000000e+002	 1.75971e-002
2594	 2.3706250000e+002	 1.33428e-002
2595	 2.3712500000e+002	 4.78347e-003
2596	 2.3718750000e+002	 9.53685e-003
2597	 2.3725000000e+002	 8.74293e-003
2598	 2.3731250000e+002	 3.57900e-003
2599	 2.3737500000e+002	 1.06277e-002
2600	 2.3743750000e+002	 8.22894e-003
2601	 2.3750000000e+002	 2.37560e-003
2602	 2.3756250000e+002	 2.76357e-003
2603	 2.3762500000e+002	 7.20870e-003
2604	 2.3768750000e+002	 1.47934e-002
2605	 2.3775000000e+002	 1.43333e-002
2606	 2.3781250000e+002	 1.77356e-002
2607	 2.3787500000e+002	 2.68180e-002
2608	 2.3793750000e+002	 9.67186e-003
2609	 2.3800000000e+002	 3.90894e-003
2610	 2.3806250000e+002	 1.74281e-003
2611	 2.3812500000e+002	 6.09826e-003
2612	 2.3818750000e+002	 1.20669e-002
2613	 2.3825000000e+002	 1.32231e-002
2614	 2.3831250000e+002	 6.92822e-003
2615	 2.3837500000e+002	 6.00022e-003
2616	 2.3843750000e+002	 3.24804e-003
2617	 2.3850000000e+002	 3.06784e-003
2618	 2.3856250000e+002	 3.68588e-003
2619	 2.3862500000e+002	 7.28667e-003
2620	 2.3868750000e+002	 1.17201e-002
2621	 2.3875000000e+002	 1.35299e-002
2622	 2.3881250000e+002	 1.58525e-002
2623	 2.3887500000e+002	 5.83347e-003
2624	 2.3893750000e+002	 1.29779e-002
2625	 2.3900000000e+002	 1.08338e-002
2626	 2.3906250000e+002	 1.20923e-002
2627	 2.3912500000e+002	 7.32705e-003
2628	 2.3918750000e+002	 5.76556e-003
2629	 2.3925000000e+002	 5.24689e-003
2630	 2.3931250000e+002	 2.43476e-003
2631	 2.3937500000e+002	 6.49444e-003
2632	 2.3943750000e+002	 1.38432e-002
2633	 2.3950000000e+002	 1.18355e-002
2634	 2.3956250000e+002	 6.49496e-003
2635	 2.3962500000e+002	 5.14431e-003
2636	 2.3968750000e+002	 4.15529e-003
2637	 2.3975000000e+002	 4.62131e-003
2638	 2.3981250000e+002	 1.47220e-002
2639	 2.3987500000e+002	 1.39720e-002
2640	 2.3993750000e+002	 2.18360e-002
2641	 2.4000000000e+002	 2.08752e-002
2642	 2.4006250000e+002	 2.92918e-003
2643	 2.4012500000e+002	 1.11913e-002
2644	 2.4018750000e+002	 1.32869e-002
2645	 2.4025000000e+002	 4.22733e-003
2646	 2.4031250000e+002	 3.07729e-003
2647	 2.4037500000e+002	 3.98138e-003
2648	 2.4043750000e+002	 5.16658e-003
2649	 2.4050000000e+002	 5.73361e-003
2650	 2.4056250000e+002	 8.84431e-003
2651	 2.4062500000e+002	 6.28912e-003
2652	 2.4068750000e+002	 4.18208e-003
2653	 2.4075000000e+002	 1.19644e-002
2654	 2.4081250000e+002	 1.24239e-002
2655	 2.4087500000e+002	 1.65601e-002
2656	 2.4093750000e+002	 1.86496e-002
2657	 2.4100000000e+002	 1.23903e-002
2658	 2.4106250000e+002	 1.23745e-002
2659	 2.4112500000e+002	 5.29727e-003
2660	 2.4118750000e+002	 5.64336e-003
2661	 2.4125000000e+002	 4.87419e-003
2662	 2.4131250000e+002	 7.85750e-003
2663	 2.4137500000e+002	 1.27929e-002
2664	 2.4143750000e+002	 1.66300e-002
2665	 2.4150000000e+002	 2.04936e-002
2666	 2.4156250000e+002	 8.86035e-003
2667	 2.4162500000e+002	 3.19007e-003
2668	 2.4168750000e+002	 9.27671e-003
2669	 2.4175000000e+002	 1.36621e-002
2670	 2.4181250000e+002	 6.12739e-003
2671	 2.4187500000e+002	 1.34179e-002
2672	 2.4193750000e+002	 1.19491e-002
2673	 2.4200000000e+002	 5.68372e-003
2674	 2.4206250000e+002	 8.68088e-003
2675	 2.4212500000e+002	 8.90342e-003
2676	 2.4218750000e+002	 8.48538e-003
2677	 2.4225000000e+002	 3.97486e-003
2678	 2.4231250000e+002	 2.71288e-003
2679	 2.4237500000e+002	 1.00490e-002
2680	 2.4243750000e+002	 1.46171e-002
2681	 2.4250000000e+002	 5.23765e-003
2682	 2.4256250000e+002	 6.23525e-003
2683	 2.4262500000e+002	 7.54403e-003
2684	 2.4268750000e+002	 5.02972e-003
2685	 2.4275000000e+002	 3.62834e-003
2686	 2.4281250000e+002	 3.67916e-003
2687	 2.4287500000e+002	 3.23064e-003
2688	 2.4293750000e+002	 4.73470e-003
2689	 2.4300000000e+002	 8.46848e-003
2690	 2.4306250000e+002	 8.88344e-003
2691	 2.4312500000e+002	 9.25275e-003
2692	 2.4318750000e+002	 7.68894e-003
2693	 2.4325000000e+002	 6.24094e-003
2694	 2.4331250000e+002	 5.02547e-003
2695	 2.4337500000e+002	 8.53567e-003
2696	 2.4343750000e+002	 1.48972e-002
2697	 2.4350000000e+002	 7.64394e-003
2698	 2.4356250000e+002	 9.75163e-003
2699	 2.4362500000e+002	 8.79105e-003
2700	 2.4368750000e+002	 1.13987e-002
2701	 2.4375000000e+002	 8.29350e-003
2702	 2.4381250000e+002	 4.65618e-003
2703	 2.4387500000e+002	 7.65955e-003
2704	 2.4393750000e+002	 7.18204e-003
2705	 2.4400000000e+002	 3.07810e-003
2706	 2.4406250000e+002	 4.82746e-003
2707	 2.4412500000e+002	 1.07258e-002
2708	 2.4418750000e+002	 7.18074e-003
2709	 2.4425000000e+002	 5.04185e-003
2710	 2.4431250000e+002	 7.58902e-003
2711	 2.4437500000e+002	 1.16317e-002
2712	 2.4443750000e+002	 1.29755e-002
2713	 2.4450000000e+002	 6.36682e-003
2714	 2.4456250000e+002	 4.74001e-003
2715	 2.4462500000e+002	 4.56129e-003
2716	 2.4468750000e+002	 4.51926e-003
2717	 2.4475000000e+002	 3.64801e-003
2718	 2.4481250000e+002	 3.42968e-003
2719	 2.4487500000e+002	 8.55920e-003
2720	 2.4493750000e+002	 2.26439e-002
2721	 2.4500000000e+002	 1.68331e-002
2722	 2.4506250000e+002	 4.99525e-003
2723	 2.4512500000e+002	 7.08997e-003
2724	 2.4518750000e+002	 1.25964e-002
2725	 2.4525000000e+002	 5.20684e-003
2726	 2.4531250000e+002	 5.10528e-003
2727	 2.4537500000e+002	 7.01671e-003
2728	 2.4543750000e+002	 8.95447e-003
2729	 2.4550000000e+002	 1.86862e-002
2730	 2.4556250000e+002	 8.08633e-003
2731	 2.4562500000e+002	 5.02210e-003
2732	 2.4568750000e+002	 1.53497e-002
2733	 2.4575000000e+002	 2.15657e-002
2734	 2.4581250000e+002	 1.45188e-002
2735	 2.4587500000e+002	 1.10418e-002
2736	 2.4593750000e+002	 1.31149e-002
2737	 2.4600000000e+002	 6.32040e-003
2738	 2.4606250000e+002	 3.86283e-003
2739	 2.4612500000e+002	 5.08619e-003
2740	 2.4618750000e+002	 9.20677e-003
2741	 2.4625000000e+002	 1.25289e-002
2742	 2.4631250000e+002	 1.43229e-002
2743	 2.4637500000e+002	 1.34183e-002
2744	 2.4643750000e+002	 6.59621e-003
2745	 2.4650000000e+002	 3.30939e-003
2746	 2.4656250000e+002	 1.21910e-002
2747	 2.4662500000e+002	 1.94350e-002
2748	 2.4668750000e+002	 1.05270e-002
2749	 2.4675000000e+002	 1.52801e-002
2750	 2.4681250000e+002	 1.16256e-002
2751	 2.4687500000e+002	 1.87768e-002
2752	 2.4693750000e+002	 1.14047e-002
2753	 2.4700000000e+002	 1.42716e-002
2754	 2.4706250000e+002	 1.84740e-002
2755	 2.4712500000e+002	 1.04945e-002
2756	 2.4718750000e+002	 4.32252e-003
2757	 2.4725000000e+002	 5.31994e-003
2758	 2.4731250000e+002	 9.44085e-003
2759	 2.4737500000e+002	 1.09907e-002
2760	 2.4743750000e+002	 1.02793e-002
2761	 2.4750000000e+002	 6.22374e-003
2762	 2.4756250000e+002	 6.29523e-003
2763	 2.4762500000e+002	 9.69077e-003
2764	 2.4768750000e+002	 8.89343e-003
2765	 2.4775000000e+002	 7.79247e-003
2766	 2.4781250000e+002	 1.05643e-002
2767	 2.4787500000e+002	 9.60801e-003
2768	 2.4793750000e+002	 5.97462e-003
2769	 2.4800000000e+002	 5.28493e-003
2770	 2.4806250000e+002	 5.79404e-003
2771	 2.4812500000e+002	 6.46181e-003
2772	 2.4818750000e+002	 4.15110e-003
2773	 2.4825000000e+002	 4.30717e-003
2774	 2.4831250000e+002	 2.22021e-003
2775	 2.4837500000e+002	 5.35963e-003
2776	 2.4843750000e+002	 6.15384e-003
2777	 2.4850000000e+002	 4.14553e-003
2778	 2.4856250000e+002	 9.26127e-003
2779	 2.4862500000e+002	 8.16457e-003
2780	 2.4868750000e+002	 1.24613e-002
2781	 2.4875000000e+002	 1.70853e-002
2782	 2.4881250000e+002	 3.28167e-003
2783	 2.4887500000e+002	 4.20950e-003
2784	 2.4893750000e+002	 5.26282e-003
2785	 2.4900000000e+002	 7.63815e-003
2786	 2.4906250000e+002	 2.06519e-002
2787	 2.4912500000e+002	 1.88258e-002
2788	 2.4918750000e+002	 4.59155e-003
2789	 2.4925000000e+002	 2.91454e-003
2790	 2.4931250000e+002	 6.29611e-003
2791	 2.4937500000e+002	 8.98788e-003
2792	 2.4943750000e+002	 7.17107e-003
2793	 2.4950000000e+002	 1.08607e-002
2794	 2.4956250000e+002	 6.37605e-003
2795	 2.4962500000e+002	 3.66739e-003
2796	 2.4968750000e+002	 4.17593e-003
2797	 2.4975000000e+002	 8.31426e-003
2798	 2.4981250000e+002	 1.33142e-002
2799	 2.4987500000e+002	 8.48015e-003
2800	 2.4993750000e+002	 9.91966e-003
2801	 2.5000000000e+002	 1.64263e-002
2802	 2.5006250000e+002	 1.84768e-002
2803	 2.5012500000e+002	 8.81033e-003
2804	 2.5018750000e+002	 8.85808e-003
2805	 2.5025000000e+002	 5.56362e-003
2806	 2.5031250000e+002	 8.98743e-003
2807	 2.5037500000e+002	 1.01624e-002
2808	 2.5043750000e+002	 1.65045e-002
2809	 2.5050000000e+002	 9.45529e-003
2810	 2.5056250000e+002	 1.83094e-002
2811	 2.5062500000e+002	 1.03132e-002
2812	 2.5068750000e+002	 1.38314e-002
2813	 2.5075000000e+002	 1.25297e-002
2814	 2.5081250000e+002	 9.01528e-003
2815	 2.5087500000e+002	 6.90248e-003
2816	 2.5093750000e+002	 6.51368e-003
2817	 2.5100000000e+002	 5.72023e-003
2818	 2.5106250000e+002	 7.95453e-003
2819	 2.5112500000e+002	 6.89666e-003
2820	 2.5118750000e+002	 1.06336e-002
2821	 2.5125000000e+002	 8.52718e-003
2822	 2.5131250000e+002	 1.57805e-002
2823	 2.5137500000e+002	 2.23178e-002
2824	 2.5143750000e+002	 1.76957e-002
2825	 2.5150000000e+002	 1.82177e-002
2826	 2.5156250000e+002	 1.13027e-002
2827	 2.5162500000e+002	 7.40826e-003
2828	 2.5168750000e+002	 4.33256e-003
2829	 2.5175000000e+002	 6.82398e-003
2830	 2.5181250000e+002	 1.02950e-002
2831	 2.5187500000e+002	 7.56579e-003
2832	 2.5193750000e+002	 6.02926e-003
2833	 2.5200000000e+002	 3.94497e-003
2834	 2.5206250000e+002	 8.07098e-003
2835	 2.5212500000e+002	 1.36656e-002
2836	 2.5218750000e+002	 2.54182e-002
2837	 2.5225000000e+002	 1.73373e-002
2838	 2.5231250000e+002	 3.12455e-002
2839	 2.5237500000e+002	 1.44522e-002
2840	 2.5243750000e+002	 1.64156e-002
2841	 2.5250000000e+002	 1.15258e-002
2842	 2.5256250000e+002	 9.25147e-003
2843	 2.5262500000e+002	 1.16697e-002
2844	 2.5268750000e+002	 5.80886e-003
2845	 2.5275000000e+002	 7.30999e-003
2846	 2.5281250000e+002	 1.09357e-002
2847	 2.5287500000e+002	 1.51573e-002
2848	 2.5293750000e+002	 2.35247e-002
2849	 2.5300000000e+002	 1.51989e-002
2850	 2.5306250000e+002	 2.18829e-002
2851	 2.5312500000e+002	 1.88667e-002
2852	 2.5318750000e+002	 1.25010e-002
2853	 2.5325000000e+002	 9.91505e-003
2854	 2.5331250000e+002	 1.22051e-002
2855	 2.5337500000e+002	 3.37189e-003
2856	 2.5343750000e+002	 5.85914e-003
2857	 2.5350000000e+002	 9.47462e-003
2858	 2.5356250000e+002	 2.12118e-002
2859	 2.5362500000e+002	 1.94839e-002
2860	 2.5368750000e+002	 2.41577e-002
2861	 2.5375000000e+002	 2.15373e-002
2862	 2.5381250000e+002	 1.00720e-002
2863	 2.5387500000e+002	 3.15880e-003
2864	 2.5393750000e+002	 7.68662e-003
2865	 2.5400000000e+002	 1.05498e-002
2866	 2.5406250000e+002	 8.75662e-003
2867	 2.5412500000e+002	 5.46784e-003
2868	 2.5418750000e+002	 1.88585e-003
2869	 2.5425000000e+002	 2.83237e-003
2870	 2.5431250000e+002	 1.54659e-002
2871	 2.5437500000e+002	 1.77172e-002
2872	 2.5443750000e+002	 1.31906e-002
2873	 2.5450000000e+002	 1.89501e-002
2874	 2.5456250000e+002	 1.53618e-002
2875	 2.5462500000e+002	 1.24844e-002
2876	 2.5468750000e+002	 6.93353e-003
2877	 2.5475000000e+002	 1.27380e-002
2878	 2.5481250000e+002	 1.54874e-002
2879	 2.5487500000e+002	 1.39240e-002
2880	 2.5493750000e+002	 1.45691e-002
2881	 2.5500000000e+002	 7.63166e-003
2882	 2.5506250000e+002	 4.99045e-003
2883	 2.5512500000e+002	 2.34909e-002
2884	 2.5518750000e+002	 1.75036e-002
2885	 2.5525000000e+002	 3.66521e-003
2886	 2.5531250000e+002	 3.07433e-003
2887	 2.5537500000e+002	 6.86814e-003
2888	 2.5543750000e+002	 9.45511e-003
2889	 2.5550000000e+002	 1.78751e-002
2890	 2.5556250000e+002	 1.82679e-002
2891	 2.5562500000e+002	 1.06037e-002
2892	 2.5568750000e+002	 2.60211e-002
2893	 2.5575000000e+002	 3.52742e-002
2894	 2.5581250000e+002	 2.93586e-002
2895	 2.5587500000e+002	 3.07612e-002
2896	 2.5593750000e+002	 1.30624e-002
2897	 2.5600000000e+002	 2.74010e-003
2898	 2.5606250000e+002	 2.40448e-003
2899	 2.5612500000e+002	 4.70132e-003
2900	 2.5618750000e+002	 1.49092e-002
2901	 2.5625000000e+002	 1.97455e-002
2902	 2.5631250000e+002	 1.85068e-002
2903	 2.5637500000e+002	 1.48782e-002
2904	 2.5643750000e+002	 2.66948e-002
2905	 2.5650000000e+002	 1.32210e-002
2906	 2.5656250000e+002	 1.18131e-002
2907	 2.5662500000e+002	 2.48958e-002
2908	 2.5668750000e+002	 2.61940e-002
2909	 2.5675000000e+002	 1.63289e-002
2910	 2.5681250000e+002	 6.37180e-003
2911	 2.5687500000e+002	 6.47492e-003
2912	 2.5693750000e+002	 2.80808e-002
2913	 2.5700000000e+002	 2.56086e-002
2914	 2.5706250000e+002	 3.89071e-002
2915	 2.5712500000e+002	 6.07659e-002
2916	 2.5718750000e+002	 2.11051e-002
2917	 2.5725000000e+002	 1.74841e-002
2918	 2.5731250000e+002	 3.40538e-002
2919	 2.5737500000e+002	 2.91592e-002
2920	 2.5743750000e+002	 1.44265e-002
2921	 2.5750000000e+002	 6.50078e-003
2922	 2.5756250000e+002	 6.63784e-003
2923	 2.5762500000e+002	 5.93004e-003
2924	 2.5768750000e+002	 2.24029e-002
2925	 2.5775000000e+002	 4.30565e-002
2926	 2.5781250000e+002	 3.42171e-002
2927	 2.5787500000e+002	 3.65794e-002
2928	 2.5793750000e+002	 3.55825e-002
2929	 2.5800000000e+002	 2.00681e-002
2930	 2.5806250000e+002	 1.36473e-002
2931	 2.5812500000e+002	 1.79268e-002
2932	 2.5818750000e+002	 2.36671e-002
2933	 2.5825000000e+002	 3.45972e-002
2934	 2.5831250000e+002	 1.84243e-002
2935	 2.5837500000e+002	 2.19280e-002
2936	 2.5843750000e+002	 1.28909e-002
2937	 2.5850000000e+002	 4.33608e-002
2938	 2.5856250000e+002	 6.36356e-002
2939	 2.5862500000e+002	 1.05045e-001
2940	 2.5868750000e+002	 8.41549e-002
2941	 2.5875000000e+002	 3.16862e-002
2942	 2.5881250000e+002	 2.64144e-002
2943	 2.5887500000e+002	 5.19118e-002
2944	 2.5893750000e+002	 4.75592e-002
2945	 2.5900000000e+002	 2.37405e-002
2946	 2.5906250000e+002	 1.64514e-002
2947	 2.5912500000e+002	 5.41516e-002
2948	 2.5918750000e+002	 9.08561e-002
2949	 2.5925000000e+002	 8.50929e-002
2950	 2.5931250000e+002	 4.51911e-002
2951	 2.5937500000e+002	 4.35192e-002
2952	 2.5943750000e+002	 4.19582e-002
2953	 2.5950000000e+002	 5.25287e-002
2954	 2.5956250000e+002	 3.88843e-002
2955	 2.5962500000e+002	 1.91013e-002
2956	 2.5968750000e+002	 2.15225e-002
2957	 2.5975000000e+002	 5.03048e-002
2958	 2.5981250000e+002	 5.08416e-002
2959	 2.5987500000e+002	 9.24043e-002
2960	 2.5993750000e+002	 2.72101e-002
2961	 2.6000000000e+002	 3.33024e-002
2962	 2.6006250000e+002	 1.13265e-001
2963	 2.6012500000e+002	 9.21997e-002
2964	 2.6018750000e+002	 2.39787e-002
2965	 2.6025000000e+002	 2.64191e-002
2966	 2.6031250000e+002	 4.16503e-002
2967	 2.6037500000e+002	 5.86920e-002
2968	 2.6043750000e+002	 3.80823e-002
2969	 2.6050000000e+002	 1.64754e-002
2970	 2.6056250000e+002	 2.64477e-002
2971	 2.6062500000e+002	 6.59906e-002
2972	 2.6068750000e+002	 1.33686e-001
2973	 2.6075000000e+002	 1.33332e-001
2974	 2.6081250000e+002	 1.68917e-001
2975	 2.6087500000e+002	 9.30113e-002
2976	 2.6093750000e+002	 2.06464e-002
2977	 2.6100000000e+002	 2.65955e-002
2978	 2.6106250000e+002	 3.06171e-002
2979	 2.6112500000e+002	 1.19353e-002
2980	 2.6118750000e+002	 4.73823e-002
2981	 2.6125000000e+002	 1.79661e-001
2982	 2.6131250000e+002	 1.67072e-001
2983	 2.6137500000e+002	 3.76735e-002
2984	 2.6143750000e+002	 4.64553e-002
2985	 2.6150000000e+002	 7.44454e-002
2986	 2.6156250000e+002	 2.71751e-002
2987	 2.6162500000e+002	 2.18597e-002
2988	 2.6168750000e+002	 4.09200e-002
2989	 2.6175000000e+002	 8.30764e-002
2990	 2.6181250000e+002	 9.11713e-002
2991	 2.6187500000e+002	 9.43284e-002
2992	 2.6193750000e+002	 1.04739e-001
2993	 2.6200000000e+002	 5.73162e-002
2994	 2.6206250000e+002	 6.11224e-002
2995	 2.6212500000e+002	 1.05470e-001
2996	 2.6218750000e+002	 5.95092e-002
2997	 2.6225000000e+002	 7.45394e-002
2998	 2.6231250000e+002	 1.96508e-001
2999	 2.6237500000e+002	 5.65250e-002
3000	 2.6243750000e+002	 2.80238e-002
3001	 2.6250000000e+002	 9.69777e-002
3002	 2.6256250000e+002	 1.52385e-001
3003	 2.6262500000e+002	 7.24363e-002
3004	 2.6268750000e+002	 2.32166e-002
3005	 2.6275000000e+002	 9.31650e-002
3006	 2.6281250000e+002	 2.92888e-001
3007	 2.6287500000e+002	 1.92126e-001
3008	 2.6293750000e+002	 1.19142e-001
3009	 2.6300000000e+002	 1.01385e-001
3010	 2.6306250000e+002	 1.46467e-001
3011	 2.6312500000e+002	 3.19272e-001
3012	 2.6318750000e+002	 2.17959e-001
3013	 2.6325000000e+002	 1.09439e-001
3014	 2.6331250000e+002	 4.92728e-002
3015	 2.6337500000e+002	 4.44582e-002
3016	 2.6343750000e+002	 5.52222e-002
3017	 2.6350000000e+002	 7.01759e-002
3018	 2.6356250000e+002	 2.19387e-002
3019	 2.6362500000e+002	 4.57498e-002
3020	 2.6368750000e+002	 1.05081e-001
3021	 2.6375000000e+002	 6.60529e-002
3022	 2.6381250000e+002	 1.22363e-001
3023	 2.6387500000e+002	 3.22833e-001
3024	 2.6393750000e+002	 2.85787e-001
3025	 2.6400000000e+002	 3.44408e-001
3026	 2.6406250000e+002	 1.69883e-001
3027	 2.6412500000e+002	 1.87123e-001
3028	 2.6418750000e+002	 1.66606e-001
3029	 2.6425000000e+002	 2.18112e-001
3030	 2.6431250000e+002	 2.25274e-001
3031	 2.6437500000e+002	 6.03332e-002
3032	 2.6443750000e+002	 8.51736e-002
3033	 2.6450000000e+002	 1.00586e-001
3034	 2.6456250000e+002	 1.82509e-001
3035	 2.6462500000e+002	 1.72601e-001
3036	 2.6468750000e+002	 5.05387e-002
3037	 2.6475000000e+002	 1.17192e-001
3038	 2.6481250000e+002	 1.98484e-001
3039	 2.6487500000e+002	 4.57101e-001
3040	 2.6493750000e+002	 2.64929e-001
3041	 2.6500000000e+002	 1.24628e-001
3042	 2.6506250000e+002	 8.00713e-002
3043	 2.6512500000e+002	 1.06583e-001
3044	 2.6518750000e+002	 1.52584e-001
3045	 2.6525000000e+002	 1.82537e-001
3046	 2.6531250000e+002	 1.56199e-001
3047	 2.6537500000e+002	 1.45938e-001
3048	 2.6543750000e+002	 5.94295e-002
3049	 2.6550000000e+002	 2.29408e-002
3050	 2.6556250000e+002	 5.08219e-002
3051	 2.6562500000e+002	 1.85565e-001
3052	 2.6568750000e+002	 1.97011e-001
3053	 2.6575000000e+002	 2.56129e-001
3054	 2.6581250000e+002	 1.77450e-001
3055	 2.6587500000e+002	 8.97271e-002
3056	 2.6593750000e+002	 2.11551e-001
3057	 2.6600000000e+002	 3.86271e-001
3058	 2.6606250000e+002	 3.68511e-001
3059	 2.6612500000e+002	 5.21509e-001
3060	 2.6618750000e+002	 6.35599e-001
3061	 2.6625000000e+002	 4.20859e-001
3062	 2.6631250000e+002	 4.04607e-001
3063	 2.6637500000e+002	 4.69049e-001
3064	 2.6643750000e+002	 4.60531e-001
3065	 2.6650000000e+002	 2.68091e-001
3066	 2.6656250000e+002	 2.55628e-001
3067	 2.6662500000e+002	 2.79692e-001
3068	 2.6668750000e+002	 2.10376e-001
3069	 2.6675000000e+002	 3.05522e-001
3070	 2.6681250000e+002	 4.52098e-001
3071	 2.6687500000e+002	 2.57619e-001
3072	 2.6693750000e+002	 2.74231e-001
3073	 2.6700000000e+002	 4.44944e-001
3074	 2.6706250000e+002	 3.16994e-001
3075	 2.6712500000e+002	 2.87004e-001
3076	 2.6718750000e+002	 2.22146e-001
3077	 2.6725000000e+002	 1.97317e-001
3078	 2.6731250000e+002	 3.14246e-001
3079	 2.6737500000e+002	 3.97593e-001
3080	 2.6743750000e+002	 5.64837e-001
3081	 2.6750000000e+002	 3.16561e-001
3082	 2.6756250000e+002	 3.33872e-001
3083	 2.6762500000e+002	 2.88502e-001
3084	 2.6768750000e+002	 5.50218e-001
3085	 2.6775000000e+002	 4.20645e-001
3086	 2.6781250000e+002	 1.31259e-001
3087	 2.6787500000e+002	 1.73014e-001
3088	 2.6793750000e+002	 1.73153e-001
3089	 2.6800000000e+002	 2.05307e-001
3090	 2.6806250000e+002	 2.72287e-001
3091	 2.6812500000e+002	 2.68790e-001
3092	 2.6818750000e+002	 3.80720e-001
3093	 2.6825000000e+002	 4.21169e-001
3094	 2.6831250000e+002	 2.43597e-001
3095	 2.6837500000e+002	 4.54276e-001
3096	 2.6843750000e+002	 3.17706e-001
3097	 2.6850000000e+002	 1.88817e-001
3098	 2.6856250000e+002	 8.56624e-002
3099	 2.6862500000e+002	 3.44082e-001
3100	 2.6868750000e+002	 4.42251e-001
3101	 2.6875000000e+002	 2.28296e-001
3102	 2.6881250000e+002	 1.29774e-001
3103	 2.6887500000e+002	 1.23642e-001
3104	 2.6893750000e+002	 4.79577e-002
3105	 2.6900000000e+002	 5.42236e-002
3106	 2.6906250000e+002	 1.18402e-001
3107	 2.6912500000e+002	 7.19943e-002
3108	 2.6918750000e+002	 8.11627e-002
3109	 2.6925000000e+002	 1.08808e-001
3110	 2.6931250000e+002	 1.76263e-001
3111	 2.6937500000e+002	 1.81010e-001
3112	 2.6943750000e+002	 6.47501e-002
3113	 2.6950000000e+002	 3.42049e-002
3114	 2.6956250000e+002	 5.31896e-002
3115	 2.6962500000e+002	 6.88474e-002
3116	 2.6968750000e+002	 7.12651e-002
3117	 2.6975000000e+002	 5.45491e-002
3118	 2.6981250000e+002	 9.16988e-002
3119	 2.6987500000e+002	 1.21964e-001
3120	 2.6993750000e+002	 7.92774e-002
3121	 2.7000000000e+002	 1.43899e-001
3122	 2.7006250000e+002	 1.94332e-001
3123	 2.7012500000e+002	 1.16551e-001
3124	 2.7018750000e+002	 1.55836e-001
3125	 2.7025000000e+002	 1.43263e-001
3126	 2.7031250000e+002	 7.69874e-002
3127	 2.7037500000e+002	 8.04833e-002
3128	 2.7043750000e+002	 5.91602e-002
3129	 2.7050000000e+002	 4.25846e-002
3130	 2.7056250000e+002	 2.17128e-002
3131	 2.7062500000e+002	 3.52180e-002
3132	 2.7068750000e+002	 3.72096e-002
3133	 2.7075000000e+002	 3.57453e-002
3134	 2.7081250000e+002	 2.14564e-002
3135	 2.7087500000e+002	 4.82080e-002
3136	 2.7093750000e+002	 4.44692e-002
3137	 2.7100000000e+002	 1.07654e-001
3138	 2.7106250000e+002	 1.06374e-001
3139	 2.7112500000e+002	 1.19462e-001
3140	 2.7118750000e+002	 1.39126e-001
3141	 2.7125000000e+002	 7.92752e-002
3142	 2.7131250000e+002	 2.60406e-002
3143	 2.7137500000e+002	 7.17810e-002
3144	 2.7143750000e+002	 6.90582e-002
3145	 2.7150000000e+002	 3.54545e-002
3146	 2.7156250000e+002	 4.51656e-002
3147	 2.7162500000e+002	 7.52048e-002
3148	 2.7168750000e+002	 6.25577e-002
3149	 2.7175000000e+002	 7.29180e-002
3150	 2.7181250000e+002	 6.58911e-002
3151	 2.7187500000e+002	 1.38479e-001
3152	 2.7193750000e+002	 8.85482e-002
3153	 2.7200000000e+002	 4.89827e-002
3154	 2.7206250000e+002	 3.11242e-002
3155	 2.7212500000e+002	 2.26711e-002
3156	 2.7218750000e+002	 6.69879e-002
3157	 2.7225000000e+002	 7.01487e-002
3158	 2.7231250000e+002	 7.97389e-002
3159	 2.7237500000e+002	 1.33891e-001
3160	 2.7243750000e+002	 5.32232e-002
3161	 2.7250000000e+002	 4.34592e-002
3162	 2.7256250000e+002	 2.49907e-002
3163	 2.7262500000e+002	 1.70956e-002
3164	 2.7268750000e+002	 2.46906e-002
3165	 2.7275000000e+002	 3.10081e-002
3166	 2.7281250000e+002	 6.24930e-002
3167	 2.7287500000e+002	 5.70454e-002
3168	 2.7293750000e+002	 5.19424e-002
3169	 2.7300000000e+002	 1.13160e-001
3170	 2.7306250000e+002	 9.48424e-002
3171	 2.7312500000e+002	 4.03562e-002
3172	 2.7318750000e+002	 3.95520e-002
3173	 2.7325000000e+002	 4.31805e-002
3174	 2.7331250000e+002	 5.74737e-002
3175	 2.7337500000e+002	 2.65576e-002
3176	 2.7343750000e+002	 1.03532e-002
3177	 2.7350000000e+002	 3.59482e-002
3178	 2.7356250000e+002	 3.73624e-002
3179	 2.7362500000e+002	 4.69921e-002
3180	 2.7368750000e+002	 2.84656e-002
3181	 2.7375000000e+002	 7.24991e-002
3182	 2.7381250000e+002	 1.20401e-001
3183	 2.7387500000e+002	 8.33766e-002
3184	 2.7393750000e+002	 2.34269e-002
3185	 2.7400000000e+002	 5.75102e-003
3186	 2.7406250000e+002	 1.56398e-002
3187	 2.7412500000e+002	 1.77182e-002
3188	 2.7418750000e+002	 1.08115e-002
3189	 2.7425000000e+002	 2.80224e-002
3190	 2.7431250000e+002	 2.48203e-002
3191	 2.7437500000e+002	 2.97891e-002
3192	 2.7443750000e+002	 5.54723e-002
3193	 2.7450000000e+002	 3.34911e-002
3194	 2.7456250000e+002	 1.17290e-002
3195	 2.7462500000e+002	 4.23359e-002
3196	 2.7468750000e+002	 5.58661e-002
3197	 2.7475000000e+002	 3.38822e-002
3198	 2.7481250000e+002	 2.23510e-002
3199	 2.7487500000e+002	 2.75985e-002
3200	 2.7493750000e+002	 1.96390e-002
3201	 2.7500000000e+002	 1.50815e-002
TagsBegin:	 	 
OverLoad:	 	False
AverageNumber: []	 	 2.60000e+001
OverLoadRatio: []	 	 1.19209e-007
TagsEnd:	 	 
TagScalesBegin:	 	 
TagScalesEnd:	 	 
