Header Size:	 78	 
Pulse Version:	 42	 
Decimal Symbol:	.	 
Date Format:	dd-MM-yyyy	 
Time Format:	HH:mm:ss:mmm	 
Data Type:	Real	 
Slice:	False	 
Z-Axis type:	Linear	 
Z-Axis size:	1	 
Z-Axis unit:	 	 
Z-Axis first value:	 0.0000000000e+000	 
Z-Axis delta:	 1.0000000000e+000	 
X-Axis type:	Linear	 
X-Axis size:	3201	 
X-Axis unit:	Hz	 
X-Axis first value:	 7.5000000000e+001	 
X-Axis delta:	 6.2500000000e-002	 
	 	 
AmplitudeUnit:	Pa	 
Analyzer:	FFT_Spectrum_Averaging	 
AnalyzerName:	FFT Analyzer	 
	 	 
	 	 
Bipolar:	False	 
CenterFrequency:	 1.7500000000e+002	 
	 	 
	 	 
	 	 
	 	 
dBReference:	 4.0000000000e-010	 
	 	 
	 	 
	 	 
Domain:	1	 
Function:	Autospectrum	 
	 	 
InputRange:	 2.2376582278e+002	 
	 	 
	 	 
MultiBufferName:	Input	 
NBW:	 1.5000000000e+000	 
	 	 
OverlapFailed:	False	 
Overrun:	False	 
Power:	True	 
PowerUnit:	Pa²	 
	 	 
RecordLength:	 1.6000000000e+001	 
ReducedSize:	True	 
	 	 
	 	 
	 	 
	 	 
	 	 
SamplingRatio:	 1.2800000000e+000	 
Signal:	p_A_source	 
	 	 
SignalUnit:	Pa	 
	 	 
	 	 
	 	 
Title:	Autospectrum(p_A_source) - Input	 
Title1:	Working : Input : Input : FFT Analyzer	 
	 	 
	 	 
Weight:	0	 
ZoomOn:	True	 
	 	 
TemplateName:	Working	 
MeasurementName:	Input	 
MeasurementSlice:	False	 
	 	 
DeltaFrequency:	 6.2500000000e-002	 
	 	 
EnvelopeOn:	False	 
	 	 
	 	 
	 	 
Z-index:	 	1
Date:	 	05-03-2025
Time:	 	11:59:19:994
Relative time:	 	 0.00000e+000
Z-axis:	 	 0.0000000000e+000
1	 7.5000000000e+001	 1.67639e-003
2	 7.5062500000e+001	 1.19760e-003
3	 7.5125000000e+001	 2.43525e-003
4	 7.5187500000e+001	 3.98319e-003
5	 7.5250000000e+001	 2.81326e-003
6	 7.5312500000e+001	 1.80972e-003
7	 7.5375000000e+001	 2.87513e-003
8	 7.5437500000e+001	 3.10648e-003
9	 7.5500000000e+001	 2.56735e-003
10	 7.5562500000e+001	 1.83279e-003
11	 7.5625000000e+001	 2.54084e-003
12	 7.5687500000e+001	 3.11884e-003
13	 7.5750000000e+001	 5.98487e-003
14	 7.5812500000e+001	 5.25625e-003
15	 7.5875000000e+001	 2.41725e-003
16	 7.5937500000e+001	 5.80047e-003
17	 7.6000000000e+001	 4.92553e-003
18	 7.6062500000e+001	 1.84261e-003
19	 7.6125000000e+001	 1.99998e-003
20	 7.6187500000e+001	 9.82830e-004
21	 7.6250000000e+001	 1.14360e-003
22	 7.6312500000e+001	 2.10819e-003
23	 7.6375000000e+001	 2.78486e-003
24	 7.6437500000e+001	 3.33609e-003
25	 7.6500000000e+001	 2.36683e-003
26	 7.6562500000e+001	 1.52761e-003
27	 7.6625000000e+001	 1.70292e-003
28	 7.6687500000e+001	 1.64089e-003
29	 7.6750000000e+001	 2.20733e-003
30	 7.6812500000e+001	 1.68968e-003
31	 7.6875000000e+001	 1.91805e-003
32	 7.6937500000e+001	 1.71358e-003
33	 7.7000000000e+001	 8.17224e-004
34	 7.7062500000e+001	 5.98852e-004
35	 7.7125000000e+001	 1.03394e-003
36	 7.7187500000e+001	 1.75268e-003
37	 7.7250000000e+001	 2.67661e-003
38	 7.7312500000e+001	 4.39080e-003
39	 7.7375000000e+001	 1.74909e-003
40	 7.7437500000e+001	 2.40188e-003
41	 7.7500000000e+001	 1.38341e-003
42	 7.7562500000e+001	 2.12647e-004
43	 7.7625000000e+001	 1.83895e-004
44	 7.7687500000e+001	 7.42278e-004
45	 7.7750000000e+001	 3.20474e-003
46	 7.7812500000e+001	 2.41112e-003
47	 7.7875000000e+001	 1.69612e-003
48	 7.7937500000e+001	 1.25941e-003
49	 7.8000000000e+001	 4.77964e-004
50	 7.8062500000e+001	 5.85153e-004
51	 7.8125000000e+001	 1.80955e-003
52	 7.8187500000e+001	 2.76201e-003
53	 7.8250000000e+001	 2.59511e-003
54	 7.8312500000e+001	 2.20763e-003
55	 7.8375000000e+001	 3.65231e-003
56	 7.8437500000e+001	 2.67852e-003
57	 7.8500000000e+001	 2.34370e-003
58	 7.8562500000e+001	 1.72435e-003
59	 7.8625000000e+001	 1.66948e-003
60	 7.8687500000e+001	 1.24125e-003
61	 7.8750000000e+001	 1.40512e-003
62	 7.8812500000e+001	 1.50013e-003
63	 7.8875000000e+001	 1.56836e-003
64	 7.8937500000e+001	 7.72922e-004
65	 7.9000000000e+001	 5.18327e-004
66	 7.9062500000e+001	 1.03654e-003
67	 7.9125000000e+001	 4.89223e-004
68	 7.9187500000e+001	 1.50680e-003
69	 7.9250000000e+001	 3.10236e-003
70	 7.9312500000e+001	 9.12137e-004
71	 7.9375000000e+001	 1.15179e-003
72	 7.9437500000e+001	 1.48836e-003
73	 7.9500000000e+001	 2.38868e-003
74	 7.9562500000e+001	 7.52085e-004
75	 7.9625000000e+001	 3.22892e-003
76	 7.9687500000e+001	 8.13536e-003
77	 7.9750000000e+001	 4.57371e-003
78	 7.9812500000e+001	 1.88189e-003
79	 7.9875000000e+001	 1.83529e-003
80	 7.9937500000e+001	 1.37040e-003
81	 8.0000000000e+001	 1.24448e-003
82	 8.0062500000e+001	 1.39720e-003
83	 8.0125000000e+001	 1.92404e-003
84	 8.0187500000e+001	 3.20160e-003
85	 8.0250000000e+001	 2.47064e-003
86	 8.0312500000e+001	 1.17505e-003
87	 8.0375000000e+001	 1.01043e-003
88	 8.0437500000e+001	 2.06914e-003
89	 8.0500000000e+001	 4.95265e-003
90	 8.0562500000e+001	 2.65714e-003
91	 8.0625000000e+001	 2.92480e-003
92	 8.0687500000e+001	 2.67665e-003
93	 8.0750000000e+001	 2.67678e-003
94	 8.0812500000e+001	 2.81343e-003
95	 8.0875000000e+001	 5.51553e-003
96	 8.0937500000e+001	 4.01628e-003
97	 8.1000000000e+001	 8.29435e-004
98	 8.1062500000e+001	 8.50570e-004
99	 8.1125000000e+001	 1.50281e-003
100	 8.1187500000e+001	 6.75934e-004
101	 8.1250000000e+001	 1.33273e-003
102	 8.1312500000e+001	 1.28203e-003
103	 8.1375000000e+001	 1.22558e-003
104	 8.1437500000e+001	 1.26298e-003
105	 8.1500000000e+001	 2.70932e-003
106	 8.1562500000e+001	 3.92953e-003
107	 8.1625000000e+001	 3.20113e-003
108	 8.1687500000e+001	 2.51933e-003
109	 8.1750000000e+001	 3.74839e-003
110	 8.1812500000e+001	 4.24368e-003
111	 8.1875000000e+001	 4.57903e-003
112	 8.1937500000e+001	 2.35269e-003
113	 8.2000000000e+001	 1.45020e-003
114	 8.2062500000e+001	 2.77104e-003
115	 8.2125000000e+001	 4.82109e-003
116	 8.2187500000e+001	 4.80894e-003
117	 8.2250000000e+001	 4.28558e-003
118	 8.2312500000e+001	 6.71875e-003
119	 8.2375000000e+001	 5.40666e-003
120	 8.2437500000e+001	 3.09757e-003
121	 8.2500000000e+001	 1.60577e-003
122	 8.2562500000e+001	 3.64477e-003
123	 8.2625000000e+001	 2.72413e-003
124	 8.2687500000e+001	 1.42371e-003
125	 8.2750000000e+001	 2.50849e-003
126	 8.2812500000e+001	 3.97912e-003
127	 8.2875000000e+001	 4.72713e-003
128	 8.2937500000e+001	 1.21181e-003
129	 8.3000000000e+001	 1.89241e-003
130	 8.3062500000e+001	 1.50635e-003
131	 8.3125000000e+001	 8.88691e-004
132	 8.3187500000e+001	 2.14340e-003
133	 8.3250000000e+001	 1.46737e-003
134	 8.3312500000e+001	 2.15318e-003
135	 8.3375000000e+001	 3.70553e-003
136	 8.3437500000e+001	 4.35759e-003
137	 8.3500000000e+001	 2.04693e-003
138	 8.3562500000e+001	 1.17893e-003
139	 8.3625000000e+001	 2.22870e-003
140	 8.3687500000e+001	 3.73305e-003
141	 8.3750000000e+001	 1.81166e-003
142	 8.3812500000e+001	 2.13355e-003
143	 8.3875000000e+001	 2.97076e-003
144	 8.3937500000e+001	 3.60854e-003
145	 8.4000000000e+001	 2.26584e-003
146	 8.4062500000e+001	 6.34676e-004
147	 8.4125000000e+001	 1.16032e-003
148	 8.4187500000e+001	 1.75668e-003
149	 8.4250000000e+001	 3.71076e-003
150	 8.4312500000e+001	 5.58531e-003
151	 8.4375000000e+001	 1.51394e-003
152	 8.4437500000e+001	 1.62006e-003
153	 8.4500000000e+001	 1.49433e-003
154	 8.4562500000e+001	 2.10379e-003
155	 8.4625000000e+001	 1.57262e-003
156	 8.4687500000e+001	 4.70788e-003
157	 8.4750000000e+001	 3.46666e-003
158	 8.4812500000e+001	 4.74646e-003
159	 8.4875000000e+001	 4.81909e-003
160	 8.4937500000e+001	 2.72421e-003
161	 8.5000000000e+001	 1.96564e-003
162	 8.5062500000e+001	 2.70805e-003
163	 8.5125000000e+001	 2.51108e-003
164	 8.5187500000e+001	 2.32733e-003
165	 8.5250000000e+001	 8.52306e-004
166	 8.5312500000e+001	 3.53091e-004
167	 8.5375000000e+001	 2.09874e-003
168	 8.5437500000e+001	 2.44035e-003
169	 8.5500000000e+001	 7.24473e-004
170	 8.5562500000e+001	 4.80203e-004
171	 8.5625000000e+001	 7.60561e-004
172	 8.5687500000e+001	 8.08768e-004
173	 8.5750000000e+001	 1.15951e-003
174	 8.5812500000e+001	 1.50644e-003
175	 8.5875000000e+001	 4.97650e-004
176	 8.5937500000e+001	 9.34503e-004
177	 8.6000000000e+001	 1.20307e-003
178	 8.6062500000e+001	 9.16218e-004
179	 8.6125000000e+001	 9.73369e-004
180	 8.6187500000e+001	 1.60923e-003
181	 8.6250000000e+001	 1.43570e-003
182	 8.6312500000e+001	 1.46212e-003
183	 8.6375000000e+001	 1.93482e-003
184	 8.6437500000e+001	 1.51754e-003
185	 8.6500000000e+001	 3.21661e-003
186	 8.6562500000e+001	 6.19405e-003
187	 8.6625000000e+001	 4.05090e-003
188	 8.6687500000e+001	 2.20166e-003
189	 8.6750000000e+001	 2.26399e-003
190	 8.6812500000e+001	 2.03384e-003
191	 8.6875000000e+001	 1.48680e-003
192	 8.6937500000e+001	 1.23313e-003
193	 8.7000000000e+001	 1.55491e-003
194	 8.7062500000e+001	 1.99921e-003
195	 8.7125000000e+001	 1.79974e-003
196	 8.7187500000e+001	 6.02132e-003
197	 8.7250000000e+001	 4.26128e-003
198	 8.7312500000e+001	 3.11972e-003
199	 8.7375000000e+001	 3.30423e-003
200	 8.7437500000e+001	 3.08652e-003
201	 8.7500000000e+001	 3.12474e-003
202	 8.7562500000e+001	 4.80352e-003
203	 8.7625000000e+001	 6.98558e-003
204	 8.7687500000e+001	 5.24799e-003
205	 8.7750000000e+001	 1.70567e-003
206	 8.7812500000e+001	 8.22254e-004
207	 8.7875000000e+001	 4.75373e-003
208	 8.7937500000e+001	 6.83810e-003
209	 8.8000000000e+001	 5.38606e-003
210	 8.8062500000e+001	 1.74316e-003
211	 8.8125000000e+001	 4.59198e-003
212	 8.8187500000e+001	 4.52659e-003
213	 8.8250000000e+001	 2.17422e-003
214	 8.8312500000e+001	 5.80288e-003
215	 8.8375000000e+001	 3.17668e-003
216	 8.8437500000e+001	 1.57080e-003
217	 8.8500000000e+001	 1.25404e-003
218	 8.8562500000e+001	 4.39482e-003
219	 8.8625000000e+001	 4.83255e-003
220	 8.8687500000e+001	 1.83279e-003
221	 8.8750000000e+001	 1.99875e-003
222	 8.8812500000e+001	 3.73979e-003
223	 8.8875000000e+001	 4.81276e-003
224	 8.8937500000e+001	 2.65378e-003
225	 8.9000000000e+001	 1.90811e-003
226	 8.9062500000e+001	 2.31433e-003
227	 8.9125000000e+001	 1.78932e-003
228	 8.9187500000e+001	 2.79383e-003
229	 8.9250000000e+001	 2.87643e-003
230	 8.9312500000e+001	 3.53802e-003
231	 8.9375000000e+001	 2.91595e-003
232	 8.9437500000e+001	 2.70349e-003
233	 8.9500000000e+001	 5.54576e-003
234	 8.9562500000e+001	 9.85292e-003
235	 8.9625000000e+001	 4.79694e-003
236	 8.9687500000e+001	 2.79843e-003
237	 8.9750000000e+001	 1.40430e-003
238	 8.9812500000e+001	 1.62487e-003
239	 8.9875000000e+001	 3.14824e-003
240	 8.9937500000e+001	 2.04056e-003
241	 9.0000000000e+001	 1.76529e-003
242	 9.0062500000e+001	 2.62265e-003
243	 9.0125000000e+001	 1.65842e-003
244	 9.0187500000e+001	 1.51962e-003
245	 9.0250000000e+001	 2.20925e-003
246	 9.0312500000e+001	 2.38669e-003
247	 9.0375000000e+001	 2.10508e-003
248	 9.0437500000e+001	 3.15029e-003
249	 9.0500000000e+001	 5.05881e-003
250	 9.0562500000e+001	 4.42589e-003
251	 9.0625000000e+001	 4.48654e-003
252	 9.0687500000e+001	 1.33383e-003
253	 9.0750000000e+001	 3.23137e-003
254	 9.0812500000e+001	 3.08024e-003
255	 9.0875000000e+001	 2.33128e-003
256	 9.0937500000e+001	 6.27044e-003
257	 9.1000000000e+001	 6.67819e-003
258	 9.1062500000e+001	 2.81972e-003
259	 9.1125000000e+001	 1.37902e-003
260	 9.1187500000e+001	 4.54667e-003
261	 9.1250000000e+001	 5.16953e-003
262	 9.1312500000e+001	 2.40438e-003
263	 9.1375000000e+001	 2.95692e-003
264	 9.1437500000e+001	 4.25900e-003
265	 9.1500000000e+001	 3.24052e-003
266	 9.1562500000e+001	 3.30029e-003
267	 9.1625000000e+001	 7.29862e-003
268	 9.1687500000e+001	 7.40725e-003
269	 9.1750000000e+001	 4.00003e-003
270	 9.1812500000e+001	 1.90523e-003
271	 9.1875000000e+001	 1.93254e-003
272	 9.1937500000e+001	 2.79267e-003
273	 9.2000000000e+001	 3.22957e-003
274	 9.2062500000e+001	 1.36399e-003
275	 9.2125000000e+001	 1.90345e-003
276	 9.2187500000e+001	 2.77008e-003
277	 9.2250000000e+001	 3.32674e-003
278	 9.2312500000e+001	 2.09825e-003
279	 9.2375000000e+001	 4.16099e-003
280	 9.2437500000e+001	 1.87255e-003
281	 9.2500000000e+001	 1.30126e-003
282	 9.2562500000e+001	 2.61201e-003
283	 9.2625000000e+001	 3.59826e-003
284	 9.2687500000e+001	 3.47591e-003
285	 9.2750000000e+001	 6.40524e-003
286	 9.2812500000e+001	 7.77624e-003
287	 9.2875000000e+001	 9.20018e-003
288	 9.2937500000e+001	 6.65248e-003
289	 9.3000000000e+001	 2.16373e-003
290	 9.3062500000e+001	 9.82217e-003
291	 9.3125000000e+001	 1.19209e-002
292	 9.3187500000e+001	 7.89865e-003
293	 9.3250000000e+001	 4.69235e-003
294	 9.3312500000e+001	 6.08074e-003
295	 9.3375000000e+001	 5.30836e-003
296	 9.3437500000e+001	 3.70463e-003
297	 9.3500000000e+001	 3.20796e-003
298	 9.3562500000e+001	 4.73145e-003
299	 9.3625000000e+001	 5.86538e-003
300	 9.3687500000e+001	 5.37886e-003
301	 9.3750000000e+001	 2.84152e-003
302	 9.3812500000e+001	 4.84120e-003
303	 9.3875000000e+001	 5.09938e-003
304	 9.3937500000e+001	 5.33393e-003
305	 9.4000000000e+001	 3.03621e-003
306	 9.4062500000e+001	 2.17556e-003
307	 9.4125000000e+001	 4.41588e-003
308	 9.4187500000e+001	 2.61059e-003
309	 9.4250000000e+001	 2.66349e-003
310	 9.4312500000e+001	 4.54498e-003
311	 9.4375000000e+001	 7.96362e-003
312	 9.4437500000e+001	 7.66756e-003
313	 9.4500000000e+001	 2.44636e-003
314	 9.4562500000e+001	 5.05644e-003
315	 9.4625000000e+001	 4.09092e-003
316	 9.4687500000e+001	 1.68712e-003
317	 9.4750000000e+001	 3.35302e-003
318	 9.4812500000e+001	 8.78060e-003
319	 9.4875000000e+001	 7.35771e-003
320	 9.4937500000e+001	 4.36124e-003
321	 9.5000000000e+001	 5.45264e-003
322	 9.5062500000e+001	 4.01597e-003
323	 9.5125000000e+001	 4.96195e-003
324	 9.5187500000e+001	 1.09122e-002
325	 9.5250000000e+001	 1.59454e-002
326	 9.5312500000e+001	 6.76556e-003
327	 9.5375000000e+001	 8.10756e-003
328	 9.5437500000e+001	 7.95862e-003
329	 9.5500000000e+001	 9.96464e-003
330	 9.5562500000e+001	 4.30748e-003
331	 9.5625000000e+001	 3.12956e-003
332	 9.5687500000e+001	 6.51218e-003
333	 9.5750000000e+001	 1.12029e-002
334	 9.5812500000e+001	 5.75852e-003
335	 9.5875000000e+001	 8.65567e-003
336	 9.5937500000e+001	 1.02274e-002
337	 9.6000000000e+001	 8.73730e-003
338	 9.6062500000e+001	 5.83772e-003
339	 9.6125000000e+001	 8.70208e-003
340	 9.6187500000e+001	 1.70764e-002
341	 9.6250000000e+001	 1.32237e-002
342	 9.6312500000e+001	 5.55210e-003
343	 9.6375000000e+001	 4.80672e-003
344	 9.6437500000e+001	 5.07643e-003
345	 9.6500000000e+001	 6.19933e-003
346	 9.6562500000e+001	 6.91592e-003
347	 9.6625000000e+001	 1.38871e-002
348	 9.6687500000e+001	 6.60735e-003
349	 9.6750000000e+001	 1.17427e-002
350	 9.6812500000e+001	 2.57843e-002
351	 9.6875000000e+001	 2.11038e-002
352	 9.6937500000e+001	 1.44026e-002
353	 9.7000000000e+001	 9.05750e-003
354	 9.7062500000e+001	 1.32770e-002
355	 9.7125000000e+001	 1.71019e-002
356	 9.7187500000e+001	 1.30391e-002
357	 9.7250000000e+001	 9.49959e-003
358	 9.7312500000e+001	 8.41347e-003
359	 9.7375000000e+001	 1.03630e-002
360	 9.7437500000e+001	 7.87332e-003
361	 9.7500000000e+001	 2.13493e-002
362	 9.7562500000e+001	 2.15330e-002
363	 9.7625000000e+001	 7.53131e-003
364	 9.7687500000e+001	 8.79115e-003
365	 9.7750000000e+001	 1.34767e-002
366	 9.7812500000e+001	 1.41036e-002
367	 9.7875000000e+001	 1.69802e-002
368	 9.7937500000e+001	 1.34899e-002
369	 9.8000000000e+001	 2.45579e-002
370	 9.8062500000e+001	 1.22079e-002
371	 9.8125000000e+001	 6.36962e-003
372	 9.8187500000e+001	 9.42050e-003
373	 9.8250000000e+001	 2.61002e-003
374	 9.8312500000e+001	 3.43499e-003
375	 9.8375000000e+001	 7.45567e-003
376	 9.8437500000e+001	 6.18233e-003
377	 9.8500000000e+001	 1.09217e-002
378	 9.8562500000e+001	 2.47973e-002
379	 9.8625000000e+001	 1.56749e-002
380	 9.8687500000e+001	 1.19695e-002
381	 9.8750000000e+001	 8.13750e-003
382	 9.8812500000e+001	 8.06198e-003
383	 9.8875000000e+001	 2.03047e-002
384	 9.8937500000e+001	 2.15884e-002
385	 9.9000000000e+001	 1.85990e-002
386	 9.9062500000e+001	 1.25519e-002
387	 9.9125000000e+001	 1.45932e-002
388	 9.9187500000e+001	 5.24050e-003
389	 9.9250000000e+001	 1.28091e-002
390	 9.9312500000e+001	 7.46257e-003
391	 9.9375000000e+001	 2.98958e-003
392	 9.9437500000e+001	 8.46745e-003
393	 9.9500000000e+001	 1.52405e-002
394	 9.9562500000e+001	 7.32306e-003
395	 9.9625000000e+001	 3.99836e-003
396	 9.9687500000e+001	 1.47745e-002
397	 9.9750000000e+001	 1.78149e-002
398	 9.9812500000e+001	 5.86671e-003
399	 9.9875000000e+001	 1.13140e-002
400	 9.9937500000e+001	 1.10341e-002
401	 1.0000000000e+002	 1.48097e-002
402	 1.0006250000e+002	 1.02572e-002
403	 1.0012500000e+002	 1.62430e-002
404	 1.0018750000e+002	 1.28449e-002
405	 1.0025000000e+002	 1.62902e-002
406	 1.0031250000e+002	 1.36135e-002
407	 1.0037500000e+002	 1.83516e-002
408	 1.0043750000e+002	 1.72161e-002
409	 1.0050000000e+002	 1.89318e-002
410	 1.0056250000e+002	 9.97952e-003
411	 1.0062500000e+002	 9.40883e-003
412	 1.0068750000e+002	 1.17849e-002
413	 1.0075000000e+002	 3.32045e-002
414	 1.0081250000e+002	 3.24482e-002
415	 1.0087500000e+002	 1.28396e-002
416	 1.0093750000e+002	 1.86222e-002
417	 1.0100000000e+002	 1.55335e-002
418	 1.0106250000e+002	 2.46367e-002
419	 1.0112500000e+002	 1.83124e-002
420	 1.0118750000e+002	 1.74292e-002
421	 1.0125000000e+002	 1.77231e-002
422	 1.0131250000e+002	 1.83308e-002
423	 1.0137500000e+002	 8.87008e-003
424	 1.0143750000e+002	 1.05245e-002
425	 1.0150000000e+002	 7.66322e-003
426	 1.0156250000e+002	 9.05914e-003
427	 1.0162500000e+002	 1.65240e-002
428	 1.0168750000e+002	 6.92993e-003
429	 1.0175000000e+002	 1.16020e-002
430	 1.0181250000e+002	 2.10774e-002
431	 1.0187500000e+002	 2.04310e-002
432	 1.0193750000e+002	 1.41485e-002
433	 1.0200000000e+002	 3.59443e-002
434	 1.0206250000e+002	 3.28941e-002
435	 1.0212500000e+002	 1.10976e-002
436	 1.0218750000e+002	 1.33931e-002
437	 1.0225000000e+002	 1.16972e-002
438	 1.0231250000e+002	 2.03510e-002
439	 1.0237500000e+002	 3.26915e-002
440	 1.0243750000e+002	 3.47424e-002
441	 1.0250000000e+002	 5.01684e-002
442	 1.0256250000e+002	 5.53744e-002
443	 1.0262500000e+002	 3.42850e-002
444	 1.0268750000e+002	 2.05969e-002
445	 1.0275000000e+002	 2.55464e-002
446	 1.0281250000e+002	 3.25561e-002
447	 1.0287500000e+002	 1.94095e-002
448	 1.0293750000e+002	 3.82610e-002
449	 1.0300000000e+002	 4.14976e-002
450	 1.0306250000e+002	 1.73187e-002
451	 1.0312500000e+002	 3.70879e-002
452	 1.0318750000e+002	 7.81340e-002
453	 1.0325000000e+002	 3.81087e-002
454	 1.0331250000e+002	 2.19829e-002
455	 1.0337500000e+002	 2.67752e-002
456	 1.0343750000e+002	 7.58664e-002
457	 1.0350000000e+002	 6.34174e-002
458	 1.0356250000e+002	 7.08893e-002
459	 1.0362500000e+002	 6.78685e-002
460	 1.0368750000e+002	 6.49443e-002
461	 1.0375000000e+002	 4.49248e-002
462	 1.0381250000e+002	 4.98934e-002
463	 1.0387500000e+002	 5.42830e-002
464	 1.0393750000e+002	 4.44405e-002
465	 1.0400000000e+002	 5.35446e-002
466	 1.0406250000e+002	 4.24814e-002
467	 1.0412500000e+002	 2.71409e-002
468	 1.0418750000e+002	 9.71063e-002
469	 1.0425000000e+002	 1.51370e-001
470	 1.0431250000e+002	 9.92033e-002
471	 1.0437500000e+002	 6.30144e-002
472	 1.0443750000e+002	 4.61891e-002
473	 1.0450000000e+002	 2.35186e-002
474	 1.0456250000e+002	 3.59160e-002
475	 1.0462500000e+002	 2.21558e-002
476	 1.0468750000e+002	 5.02834e-002
477	 1.0475000000e+002	 5.39300e-002
478	 1.0481250000e+002	 4.30284e-002
479	 1.0487500000e+002	 1.29181e-001
480	 1.0493750000e+002	 1.64527e-001
481	 1.0500000000e+002	 8.54366e-002
482	 1.0506250000e+002	 3.49975e-002
483	 1.0512500000e+002	 5.21517e-002
484	 1.0518750000e+002	 6.93530e-002
485	 1.0525000000e+002	 1.01495e-001
486	 1.0531250000e+002	 7.98287e-002
487	 1.0537500000e+002	 9.50671e-002
488	 1.0543750000e+002	 1.17911e-001
489	 1.0550000000e+002	 2.11986e-001
490	 1.0556250000e+002	 9.90831e-002
491	 1.0562500000e+002	 7.60508e-002
492	 1.0568750000e+002	 8.28455e-002
493	 1.0575000000e+002	 8.18032e-002
494	 1.0581250000e+002	 4.58229e-002
495	 1.0587500000e+002	 4.21072e-002
496	 1.0593750000e+002	 3.45819e-002
497	 1.0600000000e+002	 1.50595e-001
498	 1.0606250000e+002	 2.04990e-001
499	 1.0612500000e+002	 9.42650e-002
500	 1.0618750000e+002	 9.87210e-002
501	 1.0625000000e+002	 7.89478e-002
502	 1.0631250000e+002	 1.03898e-001
503	 1.0637500000e+002	 1.95093e-001
504	 1.0643750000e+002	 1.70691e-001
505	 1.0650000000e+002	 1.32476e-001
506	 1.0656250000e+002	 2.49192e-001
507	 1.0662500000e+002	 1.98652e-001
508	 1.0668750000e+002	 2.24270e-001
509	 1.0675000000e+002	 1.19641e-001
510	 1.0681250000e+002	 1.69052e-001
511	 1.0687500000e+002	 1.92820e-001
512	 1.0693750000e+002	 4.44134e-001
513	 1.0700000000e+002	 6.97747e-001
514	 1.0706250000e+002	 4.06182e-001
515	 1.0712500000e+002	 4.51065e-001
516	 1.0718750000e+002	 4.67553e-001
517	 1.0725000000e+002	 3.83061e-001
518	 1.0731250000e+002	 4.81207e-001
519	 1.0737500000e+002	 4.61923e-001
520	 1.0743750000e+002	 1.07910e-001
521	 1.0750000000e+002	 2.96741e-001
522	 1.0756250000e+002	 5.17215e-001
523	 1.0762500000e+002	 3.22011e-001
524	 1.0768750000e+002	 4.54296e-001
525	 1.0775000000e+002	 3.98741e-001
526	 1.0781250000e+002	 3.06835e-001
527	 1.0787500000e+002	 5.30570e-001
528	 1.0793750000e+002	 2.38937e-001
529	 1.0800000000e+002	 2.50142e-001
530	 1.0806250000e+002	 2.21127e-001
531	 1.0812500000e+002	 2.16405e-001
532	 1.0818750000e+002	 3.89706e-001
533	 1.0825000000e+002	 3.92627e-001
534	 1.0831250000e+002	 2.29932e-001
535	 1.0837500000e+002	 3.20765e-001
536	 1.0843750000e+002	 1.97124e-001
537	 1.0850000000e+002	 8.58874e-002
538	 1.0856250000e+002	 1.84404e-001
539	 1.0862500000e+002	 2.39469e-001
540	 1.0868750000e+002	 1.22703e-001
541	 1.0875000000e+002	 9.39512e-002
542	 1.0881250000e+002	 2.08105e-001
543	 1.0887500000e+002	 2.27343e-001
544	 1.0893750000e+002	 1.30960e-001
545	 1.0900000000e+002	 2.34049e-001
546	 1.0906250000e+002	 1.39612e-001
547	 1.0912500000e+002	 5.75337e-002
548	 1.0918750000e+002	 2.89611e-001
549	 1.0925000000e+002	 3.27556e-001
550	 1.0931250000e+002	 2.08253e-001
551	 1.0937500000e+002	 3.22659e-001
552	 1.0943750000e+002	 9.30122e-002
553	 1.0950000000e+002	 1.14059e-001
554	 1.0956250000e+002	 2.69587e-001
555	 1.0962500000e+002	 3.36799e-001
556	 1.0968750000e+002	 2.46133e-001
557	 1.0975000000e+002	 1.04996e-001
558	 1.0981250000e+002	 7.73553e-002
559	 1.0987500000e+002	 1.66437e-001
560	 1.0993750000e+002	 2.38432e-001
561	 1.1000000000e+002	 2.20044e-001
562	 1.1006250000e+002	 2.03393e-001
563	 1.1012500000e+002	 3.12056e-001
564	 1.1018750000e+002	 4.88369e-001
565	 1.1025000000e+002	 1.85149e-001
566	 1.1031250000e+002	 3.20856e-001
567	 1.1037500000e+002	 2.61101e-001
568	 1.1043750000e+002	 1.78954e-001
569	 1.1050000000e+002	 2.16859e-001
570	 1.1056250000e+002	 1.13652e-001
571	 1.1062500000e+002	 1.29958e-001
572	 1.1068750000e+002	 4.57725e-002
573	 1.1075000000e+002	 5.54690e-002
574	 1.1081250000e+002	 1.27331e-001
575	 1.1087500000e+002	 1.33997e-001
576	 1.1093750000e+002	 7.21703e-002
577	 1.1100000000e+002	 7.27527e-002
578	 1.1106250000e+002	 1.75092e-001
579	 1.1112500000e+002	 2.29154e-001
580	 1.1118750000e+002	 9.74351e-002
581	 1.1125000000e+002	 2.10569e-002
582	 1.1131250000e+002	 6.68227e-002
583	 1.1137500000e+002	 9.68488e-002
584	 1.1143750000e+002	 8.58323e-002
585	 1.1150000000e+002	 3.02550e-002
586	 1.1156250000e+002	 3.60810e-002
587	 1.1162500000e+002	 4.32486e-002
588	 1.1168750000e+002	 5.06741e-002
589	 1.1175000000e+002	 6.55022e-002
590	 1.1181250000e+002	 6.84732e-002
591	 1.1187500000e+002	 7.82135e-002
592	 1.1193750000e+002	 1.29730e-001
593	 1.1200000000e+002	 1.22145e-001
594	 1.1206250000e+002	 1.10756e-001
595	 1.1212500000e+002	 3.78646e-002
596	 1.1218750000e+002	 6.65377e-002
597	 1.1225000000e+002	 6.73650e-002
598	 1.1231250000e+002	 2.36184e-002
599	 1.1237500000e+002	 1.82747e-002
600	 1.1243750000e+002	 1.11343e-001
601	 1.1250000000e+002	 9.70450e-002
602	 1.1256250000e+002	 9.49374e-002
603	 1.1262500000e+002	 2.06327e-001
604	 1.1268750000e+002	 9.16088e-002
605	 1.1275000000e+002	 6.43156e-002
606	 1.1281250000e+002	 9.13321e-002
607	 1.1287500000e+002	 1.06460e-001
608	 1.1293750000e+002	 4.88201e-002
609	 1.1300000000e+002	 2.05892e-002
610	 1.1306250000e+002	 6.00068e-002
611	 1.1312500000e+002	 5.16915e-002
612	 1.1318750000e+002	 6.08849e-002
613	 1.1325000000e+002	 1.75578e-001
614	 1.1331250000e+002	 1.84854e-001
615	 1.1337500000e+002	 7.77755e-002
616	 1.1343750000e+002	 7.25801e-002
617	 1.1350000000e+002	 9.37853e-002
618	 1.1356250000e+002	 7.73056e-002
619	 1.1362500000e+002	 3.80487e-002
620	 1.1368750000e+002	 7.72737e-002
621	 1.1375000000e+002	 9.02785e-002
622	 1.1381250000e+002	 4.97171e-002
623	 1.1387500000e+002	 2.87897e-002
624	 1.1393750000e+002	 1.84880e-002
625	 1.1400000000e+002	 6.90724e-002
626	 1.1406250000e+002	 4.89884e-002
627	 1.1412500000e+002	 4.85428e-002
628	 1.1418750000e+002	 8.21791e-002
629	 1.1425000000e+002	 1.19153e-001
630	 1.1431250000e+002	 8.89662e-002
631	 1.1437500000e+002	 1.06659e-001
632	 1.1443750000e+002	 1.26085e-001
633	 1.1450000000e+002	 3.31774e-002
634	 1.1456250000e+002	 1.96448e-002
635	 1.1462500000e+002	 2.82629e-002
636	 1.1468750000e+002	 6.53971e-002
637	 1.1475000000e+002	 5.87894e-002
638	 1.1481250000e+002	 2.61232e-002
639	 1.1487500000e+002	 3.02428e-002
640	 1.1493750000e+002	 3.87286e-002
641	 1.1500000000e+002	 2.13617e-002
642	 1.1506250000e+002	 2.74385e-002
643	 1.1512500000e+002	 3.10062e-002
644	 1.1518750000e+002	 2.84169e-002
645	 1.1525000000e+002	 3.28425e-002
646	 1.1531250000e+002	 2.40414e-002
647	 1.1537500000e+002	 7.09715e-002
648	 1.1543750000e+002	 4.91938e-002
649	 1.1550000000e+002	 2.35345e-002
650	 1.1556250000e+002	 7.30824e-002
651	 1.1562500000e+002	 8.45274e-002
652	 1.1568750000e+002	 6.88772e-002
653	 1.1575000000e+002	 4.58636e-002
654	 1.1581250000e+002	 2.61787e-002
655	 1.1587500000e+002	 2.16010e-002
656	 1.1593750000e+002	 1.40128e-002
657	 1.1600000000e+002	 1.35583e-002
658	 1.1606250000e+002	 2.70445e-002
659	 1.1612500000e+002	 1.76392e-002
660	 1.1618750000e+002	 3.02297e-002
661	 1.1625000000e+002	 5.54373e-002
662	 1.1631250000e+002	 5.48677e-002
663	 1.1637500000e+002	 3.42272e-002
664	 1.1643750000e+002	 3.84333e-002
665	 1.1650000000e+002	 2.25219e-002
666	 1.1656250000e+002	 2.86187e-002
667	 1.1662500000e+002	 3.23437e-002
668	 1.1668750000e+002	 1.70889e-002
669	 1.1675000000e+002	 1.88537e-002
670	 1.1681250000e+002	 1.97071e-002
671	 1.1687500000e+002	 1.09890e-002
672	 1.1693750000e+002	 1.09359e-002
673	 1.1700000000e+002	 2.13717e-002
674	 1.1706250000e+002	 5.38297e-002
675	 1.1712500000e+002	 3.87379e-002
676	 1.1718750000e+002	 8.38073e-003
677	 1.1725000000e+002	 1.34783e-002
678	 1.1731250000e+002	 2.56411e-002
679	 1.1737500000e+002	 2.69414e-002
680	 1.1743750000e+002	 1.69242e-002
681	 1.1750000000e+002	 1.86965e-002
682	 1.1756250000e+002	 2.16832e-002
683	 1.1762500000e+002	 1.81126e-002
684	 1.1768750000e+002	 2.20126e-002
685	 1.1775000000e+002	 1.31906e-002
686	 1.1781250000e+002	 1.05410e-002
687	 1.1787500000e+002	 3.12547e-002
688	 1.1793750000e+002	 2.23474e-002
689	 1.1800000000e+002	 4.81122e-003
690	 1.1806250000e+002	 5.55809e-003
691	 1.1812500000e+002	 1.23433e-002
692	 1.1818750000e+002	 1.87638e-002
693	 1.1825000000e+002	 1.21058e-002
694	 1.1831250000e+002	 3.13011e-002
695	 1.1837500000e+002	 2.35760e-002
696	 1.1843750000e+002	 8.15806e-003
697	 1.1850000000e+002	 2.03375e-002
698	 1.1856250000e+002	 2.12242e-002
699	 1.1862500000e+002	 2.02794e-002
700	 1.1868750000e+002	 5.25483e-002
701	 1.1875000000e+002	 6.40881e-002
702	 1.1881250000e+002	 2.98814e-002
703	 1.1887500000e+002	 1.69433e-002
704	 1.1893750000e+002	 2.41183e-002
705	 1.1900000000e+002	 1.18004e-002
706	 1.1906250000e+002	 4.33275e-003
707	 1.1912500000e+002	 6.23413e-003
708	 1.1918750000e+002	 2.92158e-002
709	 1.1925000000e+002	 3.21851e-002
710	 1.1931250000e+002	 1.72453e-002
711	 1.1937500000e+002	 3.34799e-002
712	 1.1943750000e+002	 3.20804e-002
713	 1.1950000000e+002	 1.76769e-002
714	 1.1956250000e+002	 1.09056e-002
715	 1.1962500000e+002	 1.26479e-002
716	 1.1968750000e+002	 2.18607e-002
717	 1.1975000000e+002	 2.56539e-002
718	 1.1981250000e+002	 2.03247e-002
719	 1.1987500000e+002	 5.19213e-002
720	 1.1993750000e+002	 4.27358e-002
721	 1.2000000000e+002	 2.10862e-002
722	 1.2006250000e+002	 2.50234e-002
723	 1.2012500000e+002	 2.56133e-002
724	 1.2018750000e+002	 7.92647e-003
725	 1.2025000000e+002	 1.09262e-002
726	 1.2031250000e+002	 2.51838e-002
727	 1.2037500000e+002	 1.06421e-002
728	 1.2043750000e+002	 1.40216e-002
729	 1.2050000000e+002	 1.52094e-002
730	 1.2056250000e+002	 2.30512e-002
731	 1.2062500000e+002	 2.48360e-002
732	 1.2068750000e+002	 1.04663e-002
733	 1.2075000000e+002	 1.50354e-002
734	 1.2081250000e+002	 4.08013e-002
735	 1.2087500000e+002	 2.24135e-002
736	 1.2093750000e+002	 3.20980e-002
737	 1.2100000000e+002	 2.71564e-002
738	 1.2106250000e+002	 1.23128e-002
739	 1.2112500000e+002	 7.37818e-003
740	 1.2118750000e+002	 1.32824e-002
741	 1.2125000000e+002	 2.23748e-002
742	 1.2131250000e+002	 2.10606e-002
743	 1.2137500000e+002	 9.02142e-003
744	 1.2143750000e+002	 2.79246e-003
745	 1.2150000000e+002	 2.19509e-003
746	 1.2156250000e+002	 6.03308e-004
747	 1.2162500000e+002	 1.39457e-003
748	 1.2168750000e+002	 8.14820e-003
749	 1.2175000000e+002	 1.29773e-002
750	 1.2181250000e+002	 1.35583e-002
751	 1.2187500000e+002	 9.25360e-003
752	 1.2193750000e+002	 1.44112e-002
753	 1.2200000000e+002	 2.55552e-002
754	 1.2206250000e+002	 1.71693e-002
755	 1.2212500000e+002	 1.55370e-002
756	 1.2218750000e+002	 1.12497e-002
757	 1.2225000000e+002	 1.58611e-002
758	 1.2231250000e+002	 1.00384e-002
759	 1.2237500000e+002	 2.79626e-003
760	 1.2243750000e+002	 9.06218e-003
761	 1.2250000000e+002	 1.07830e-002
762	 1.2256250000e+002	 7.79929e-003
763	 1.2262500000e+002	 8.34618e-003
764	 1.2268750000e+002	 1.65077e-002
765	 1.2275000000e+002	 1.20236e-002
766	 1.2281250000e+002	 5.46028e-003
767	 1.2287500000e+002	 7.65402e-003
768	 1.2293750000e+002	 1.32605e-002
769	 1.2300000000e+002	 5.34438e-003
770	 1.2306250000e+002	 1.18507e-002
771	 1.2312500000e+002	 2.94085e-002
772	 1.2318750000e+002	 2.01205e-002
773	 1.2325000000e+002	 1.53462e-002
774	 1.2331250000e+002	 1.04745e-002
775	 1.2337500000e+002	 1.77666e-002
776	 1.2343750000e+002	 5.54161e-003
777	 1.2350000000e+002	 2.31288e-003
778	 1.2356250000e+002	 6.18666e-003
779	 1.2362500000e+002	 9.98295e-003
780	 1.2368750000e+002	 1.19727e-002
781	 1.2375000000e+002	 5.72726e-003
782	 1.2381250000e+002	 1.75044e-002
783	 1.2387500000e+002	 1.90966e-002
784	 1.2393750000e+002	 1.23198e-002
785	 1.2400000000e+002	 3.94790e-003
786	 1.2406250000e+002	 3.67040e-003
787	 1.2412500000e+002	 4.60755e-003
788	 1.2418750000e+002	 1.10548e-002
789	 1.2425000000e+002	 9.79561e-003
790	 1.2431250000e+002	 1.32445e-002
791	 1.2437500000e+002	 1.66788e-002
792	 1.2443750000e+002	 6.41430e-003
793	 1.2450000000e+002	 1.16779e-002
794	 1.2456250000e+002	 2.48293e-002
795	 1.2462500000e+002	 3.33574e-002
796	 1.2468750000e+002	 1.74408e-002
797	 1.2475000000e+002	 1.37339e-002
798	 1.2481250000e+002	 1.03812e-002
799	 1.2487500000e+002	 5.56750e-003
800	 1.2493750000e+002	 5.91387e-003
801	 1.2500000000e+002	 4.68430e-003
802	 1.2506250000e+002	 3.66158e-003
803	 1.2512500000e+002	 1.05966e-002
804	 1.2518750000e+002	 2.28652e-002
805	 1.2525000000e+002	 2.52452e-002
806	 1.2531250000e+002	 2.60297e-002
807	 1.2537500000e+002	 2.06033e-002
808	 1.2543750000e+002	 1.09015e-002
809	 1.2550000000e+002	 1.49820e-002
810	 1.2556250000e+002	 2.66678e-002
811	 1.2562500000e+002	 2.40690e-002
812	 1.2568750000e+002	 1.10299e-002
813	 1.2575000000e+002	 4.18272e-003
814	 1.2581250000e+002	 4.81532e-003
815	 1.2587500000e+002	 7.40673e-003
816	 1.2593750000e+002	 1.14196e-002
817	 1.2600000000e+002	 1.74254e-002
818	 1.2606250000e+002	 1.38757e-002
819	 1.2612500000e+002	 8.50828e-003
820	 1.2618750000e+002	 1.18514e-002
821	 1.2625000000e+002	 1.80728e-002
822	 1.2631250000e+002	 9.90583e-003
823	 1.2637500000e+002	 3.53220e-003
824	 1.2643750000e+002	 6.37868e-003
825	 1.2650000000e+002	 1.04992e-002
826	 1.2656250000e+002	 2.04614e-002
827	 1.2662500000e+002	 8.23058e-003
828	 1.2668750000e+002	 5.35349e-003
829	 1.2675000000e+002	 5.29515e-003
830	 1.2681250000e+002	 1.14915e-002
831	 1.2687500000e+002	 1.10761e-002
832	 1.2693750000e+002	 1.17133e-002
833	 1.2700000000e+002	 1.46658e-002
834	 1.2706250000e+002	 1.16009e-002
835	 1.2712500000e+002	 1.49985e-002
836	 1.2718750000e+002	 1.45993e-002
837	 1.2725000000e+002	 2.45059e-002
838	 1.2731250000e+002	 1.77784e-002
839	 1.2737500000e+002	 1.25285e-002
840	 1.2743750000e+002	 1.34303e-002
841	 1.2750000000e+002	 1.01130e-002
842	 1.2756250000e+002	 1.81006e-003
843	 1.2762500000e+002	 2.67305e-003
844	 1.2768750000e+002	 1.11740e-002
845	 1.2775000000e+002	 1.30191e-002
846	 1.2781250000e+002	 7.36792e-003
847	 1.2787500000e+002	 5.56242e-003
848	 1.2793750000e+002	 8.06849e-003
849	 1.2800000000e+002	 1.16344e-002
850	 1.2806250000e+002	 6.51934e-003
851	 1.2812500000e+002	 1.50143e-002
852	 1.2818750000e+002	 1.88885e-002
853	 1.2825000000e+002	 2.55757e-002
854	 1.2831250000e+002	 2.52352e-002
855	 1.2837500000e+002	 1.29466e-002
856	 1.2843750000e+002	 1.17845e-002
857	 1.2850000000e+002	 1.41944e-002
858	 1.2856250000e+002	 1.54176e-002
859	 1.2862500000e+002	 8.97263e-003
860	 1.2868750000e+002	 3.19434e-003
861	 1.2875000000e+002	 3.62463e-003
862	 1.2881250000e+002	 1.37756e-002
863	 1.2887500000e+002	 3.18974e-002
864	 1.2893750000e+002	 2.26274e-002
865	 1.2900000000e+002	 8.61529e-003
866	 1.2906250000e+002	 3.47008e-003
867	 1.2912500000e+002	 6.31119e-003
868	 1.2918750000e+002	 1.52391e-002
869	 1.2925000000e+002	 1.38290e-002
870	 1.2931250000e+002	 7.92049e-003
871	 1.2937500000e+002	 5.71836e-003
872	 1.2943750000e+002	 9.30124e-003
873	 1.2950000000e+002	 8.44367e-003
874	 1.2956250000e+002	 9.65775e-003
875	 1.2962500000e+002	 1.58223e-002
876	 1.2968750000e+002	 8.58830e-003
877	 1.2975000000e+002	 1.04701e-002
878	 1.2981250000e+002	 1.35270e-002
879	 1.2987500000e+002	 5.72654e-003
880	 1.2993750000e+002	 4.95725e-003
881	 1.3000000000e+002	 4.73914e-003
882	 1.3006250000e+002	 1.49409e-003
883	 1.3012500000e+002	 3.37927e-003
884	 1.3018750000e+002	 1.23088e-002
885	 1.3025000000e+002	 7.87268e-003
886	 1.3031250000e+002	 4.71394e-003
887	 1.3037500000e+002	 9.61815e-003
888	 1.3043750000e+002	 9.68379e-003
889	 1.3050000000e+002	 8.61434e-003
890	 1.3056250000e+002	 5.12270e-003
891	 1.3062500000e+002	 3.70625e-003
892	 1.3068750000e+002	 2.87615e-003
893	 1.3075000000e+002	 1.41064e-003
894	 1.3081250000e+002	 3.47139e-003
895	 1.3087500000e+002	 5.68519e-003
896	 1.3093750000e+002	 7.79119e-003
897	 1.3100000000e+002	 8.04791e-003
898	 1.3106250000e+002	 5.31304e-003
899	 1.3112500000e+002	 8.36866e-003
900	 1.3118750000e+002	 5.41073e-003
901	 1.3125000000e+002	 7.02678e-003
902	 1.3131250000e+002	 7.93012e-003
903	 1.3137500000e+002	 4.79548e-003
904	 1.3143750000e+002	 6.45217e-003
905	 1.3150000000e+002	 1.50486e-002
906	 1.3156250000e+002	 1.31104e-002
907	 1.3162500000e+002	 6.03755e-003
908	 1.3168750000e+002	 1.03404e-002
909	 1.3175000000e+002	 8.25786e-003
910	 1.3181250000e+002	 1.05486e-002
911	 1.3187500000e+002	 6.93741e-003
912	 1.3193750000e+002	 6.08480e-003
913	 1.3200000000e+002	 7.21860e-003
914	 1.3206250000e+002	 7.40896e-003
915	 1.3212500000e+002	 1.61984e-002
916	 1.3218750000e+002	 2.06305e-002
917	 1.3225000000e+002	 1.81803e-002
918	 1.3231250000e+002	 1.14319e-002
919	 1.3237500000e+002	 5.45568e-003
920	 1.3243750000e+002	 8.15582e-003
921	 1.3250000000e+002	 1.01471e-002
922	 1.3256250000e+002	 6.32117e-003
923	 1.3262500000e+002	 1.07159e-003
924	 1.3268750000e+002	 1.21528e-003
925	 1.3275000000e+002	 4.94441e-003
926	 1.3281250000e+002	 5.83068e-003
927	 1.3287500000e+002	 5.10071e-003
928	 1.3293750000e+002	 3.58970e-003
929	 1.3300000000e+002	 4.62749e-003
930	 1.3306250000e+002	 7.56746e-003
931	 1.3312500000e+002	 1.60921e-002
932	 1.3318750000e+002	 1.92943e-002
933	 1.3325000000e+002	 1.50503e-002
934	 1.3331250000e+002	 9.09488e-003
935	 1.3337500000e+002	 8.16827e-003
936	 1.3343750000e+002	 6.43109e-003
937	 1.3350000000e+002	 5.71084e-003
938	 1.3356250000e+002	 8.91609e-003
939	 1.3362500000e+002	 9.91757e-003
940	 1.3368750000e+002	 6.00501e-003
941	 1.3375000000e+002	 9.68114e-003
942	 1.3381250000e+002	 1.51027e-002
943	 1.3387500000e+002	 1.06696e-002
944	 1.3393750000e+002	 8.93757e-003
945	 1.3400000000e+002	 4.18236e-003
946	 1.3406250000e+002	 1.54043e-003
947	 1.3412500000e+002	 3.57119e-003
948	 1.3418750000e+002	 7.53514e-003
949	 1.3425000000e+002	 2.43160e-002
950	 1.3431250000e+002	 1.83199e-002
951	 1.3437500000e+002	 2.63455e-002
952	 1.3443750000e+002	 3.18806e-002
953	 1.3450000000e+002	 9.96045e-003
954	 1.3456250000e+002	 5.26995e-003
955	 1.3462500000e+002	 1.01444e-002
956	 1.3468750000e+002	 1.16728e-002
957	 1.3475000000e+002	 8.10497e-003
958	 1.3481250000e+002	 6.22294e-003
959	 1.3487500000e+002	 1.35144e-002
960	 1.3493750000e+002	 1.20311e-002
961	 1.3500000000e+002	 1.14792e-002
962	 1.3506250000e+002	 8.44634e-003
963	 1.3512500000e+002	 1.33690e-002
964	 1.3518750000e+002	 5.58826e-003
965	 1.3525000000e+002	 5.34086e-003
966	 1.3531250000e+002	 9.98604e-003
967	 1.3537500000e+002	 1.85795e-002
968	 1.3543750000e+002	 4.57403e-002
969	 1.3550000000e+002	 2.30762e-002
970	 1.3556250000e+002	 3.93547e-003
971	 1.3562500000e+002	 6.29044e-003
972	 1.3568750000e+002	 1.94273e-002
973	 1.3575000000e+002	 1.25926e-002
974	 1.3581250000e+002	 5.13751e-003
975	 1.3587500000e+002	 4.79073e-003
976	 1.3593750000e+002	 3.72400e-003
977	 1.3600000000e+002	 1.57634e-003
978	 1.3606250000e+002	 5.63769e-003
979	 1.3612500000e+002	 1.29285e-002
980	 1.3618750000e+002	 1.66775e-002
981	 1.3625000000e+002	 1.55259e-002
982	 1.3631250000e+002	 7.09819e-003
983	 1.3637500000e+002	 3.42542e-003
984	 1.3643750000e+002	 1.37542e-002
985	 1.3650000000e+002	 1.18681e-002
986	 1.3656250000e+002	 8.60034e-003
987	 1.3662500000e+002	 6.50971e-003
988	 1.3668750000e+002	 1.26484e-002
989	 1.3675000000e+002	 1.14022e-002
990	 1.3681250000e+002	 8.65479e-003
991	 1.3687500000e+002	 2.08898e-002
992	 1.3693750000e+002	 1.38192e-002
993	 1.3700000000e+002	 1.38799e-002
994	 1.3706250000e+002	 1.51130e-002
995	 1.3712500000e+002	 2.62856e-002
996	 1.3718750000e+002	 1.75806e-002
997	 1.3725000000e+002	 1.51259e-002
998	 1.3731250000e+002	 1.59458e-002
999	 1.3737500000e+002	 1.34480e-002
1000	 1.3743750000e+002	 7.87089e-003
1001	 1.3750000000e+002	 1.05002e-002
1002	 1.3756250000e+002	 1.31755e-002
1003	 1.3762500000e+002	 2.29100e-002
1004	 1.3768750000e+002	 3.40054e-002
1005	 1.3775000000e+002	 2.22750e-002
1006	 1.3781250000e+002	 1.08905e-002
1007	 1.3787500000e+002	 1.36692e-002
1008	 1.3793750000e+002	 9.41562e-003
1009	 1.3800000000e+002	 1.60032e-002
1010	 1.3806250000e+002	 1.13713e-002
1011	 1.3812500000e+002	 2.14011e-002
1012	 1.3818750000e+002	 2.43099e-002
1013	 1.3825000000e+002	 1.01654e-002
1014	 1.3831250000e+002	 7.02043e-003
1015	 1.3837500000e+002	 4.53961e-003
1016	 1.3843750000e+002	 8.93952e-003
1017	 1.3850000000e+002	 2.49110e-002
1018	 1.3856250000e+002	 2.06461e-002
1019	 1.3862500000e+002	 2.07123e-002
1020	 1.3868750000e+002	 2.01912e-002
1021	 1.3875000000e+002	 1.98561e-002
1022	 1.3881250000e+002	 1.62915e-002
1023	 1.3887500000e+002	 1.79894e-002
1024	 1.3893750000e+002	 1.51896e-002
1025	 1.3900000000e+002	 1.97644e-002
1026	 1.3906250000e+002	 2.51575e-002
1027	 1.3912500000e+002	 6.51924e-003
1028	 1.3918750000e+002	 9.36711e-003
1029	 1.3925000000e+002	 1.98920e-002
1030	 1.3931250000e+002	 2.83073e-002
1031	 1.3937500000e+002	 1.00848e-002
1032	 1.3943750000e+002	 9.07965e-003
1033	 1.3950000000e+002	 1.59104e-002
1034	 1.3956250000e+002	 8.19186e-003
1035	 1.3962500000e+002	 5.86710e-003
1036	 1.3968750000e+002	 7.03997e-003
1037	 1.3975000000e+002	 1.40709e-002
1038	 1.3981250000e+002	 7.58008e-003
1039	 1.3987500000e+002	 6.26565e-003
1040	 1.3993750000e+002	 6.21086e-003
1041	 1.4000000000e+002	 1.32781e-002
1042	 1.4006250000e+002	 2.35062e-002
1043	 1.4012500000e+002	 1.73882e-002
1044	 1.4018750000e+002	 1.31684e-002
1045	 1.4025000000e+002	 1.74912e-002
1046	 1.4031250000e+002	 2.79360e-002
1047	 1.4037500000e+002	 2.77152e-002
1048	 1.4043750000e+002	 1.27892e-002
1049	 1.4050000000e+002	 1.45406e-002
1050	 1.4056250000e+002	 1.70547e-002
1051	 1.4062500000e+002	 4.41591e-002
1052	 1.4068750000e+002	 2.53291e-002
1053	 1.4075000000e+002	 1.74090e-002
1054	 1.4081250000e+002	 1.23256e-002
1055	 1.4087500000e+002	 1.17864e-002
1056	 1.4093750000e+002	 1.12597e-002
1057	 1.4100000000e+002	 1.17914e-002
1058	 1.4106250000e+002	 2.07715e-002
1059	 1.4112500000e+002	 9.42677e-003
1060	 1.4118750000e+002	 1.34285e-002
1061	 1.4125000000e+002	 1.55712e-002
1062	 1.4131250000e+002	 1.52566e-002
1063	 1.4137500000e+002	 1.89697e-002
1064	 1.4143750000e+002	 2.23665e-002
1065	 1.4150000000e+002	 1.61618e-002
1066	 1.4156250000e+002	 1.88477e-002
1067	 1.4162500000e+002	 1.35767e-002
1068	 1.4168750000e+002	 1.66703e-002
1069	 1.4175000000e+002	 1.94334e-002
1070	 1.4181250000e+002	 1.27307e-002
1071	 1.4187500000e+002	 1.42991e-002
1072	 1.4193750000e+002	 1.43971e-002
1073	 1.4200000000e+002	 1.17799e-002
1074	 1.4206250000e+002	 2.59031e-002
1075	 1.4212500000e+002	 4.63596e-002
1076	 1.4218750000e+002	 2.55918e-002
1077	 1.4225000000e+002	 1.07062e-002
1078	 1.4231250000e+002	 1.38674e-002
1079	 1.4237500000e+002	 1.99613e-002
1080	 1.4243750000e+002	 5.59452e-003
1081	 1.4250000000e+002	 1.79355e-002
1082	 1.4256250000e+002	 2.31081e-002
1083	 1.4262500000e+002	 1.14926e-002
1084	 1.4268750000e+002	 7.46341e-003
1085	 1.4275000000e+002	 3.77744e-003
1086	 1.4281250000e+002	 2.49070e-003
1087	 1.4287500000e+002	 6.47713e-003
1088	 1.4293750000e+002	 1.30443e-002
1089	 1.4300000000e+002	 2.51079e-002
1090	 1.4306250000e+002	 3.27941e-002
1091	 1.4312500000e+002	 2.61625e-002
1092	 1.4318750000e+002	 2.07148e-002
1093	 1.4325000000e+002	 2.52073e-002
1094	 1.4331250000e+002	 1.62832e-002
1095	 1.4337500000e+002	 1.12163e-002
1096	 1.4343750000e+002	 1.82358e-002
1097	 1.4350000000e+002	 3.52130e-002
1098	 1.4356250000e+002	 1.87498e-002
1099	 1.4362500000e+002	 2.78450e-002
1100	 1.4368750000e+002	 2.73348e-002
1101	 1.4375000000e+002	 3.23614e-002
1102	 1.4381250000e+002	 2.30593e-002
1103	 1.4387500000e+002	 3.60635e-002
1104	 1.4393750000e+002	 4.67789e-002
1105	 1.4400000000e+002	 3.20007e-002
1106	 1.4406250000e+002	 2.61371e-002
1107	 1.4412500000e+002	 3.61288e-002
1108	 1.4418750000e+002	 3.70665e-002
1109	 1.4425000000e+002	 1.00548e-002
1110	 1.4431250000e+002	 1.03908e-002
1111	 1.4437500000e+002	 1.16353e-002
1112	 1.4443750000e+002	 1.25898e-002
1113	 1.4450000000e+002	 5.63553e-003
1114	 1.4456250000e+002	 4.23115e-003
1115	 1.4462500000e+002	 1.81407e-002
1116	 1.4468750000e+002	 9.03458e-003
1117	 1.4475000000e+002	 1.61279e-002
1118	 1.4481250000e+002	 3.08249e-002
1119	 1.4487500000e+002	 1.70074e-002
1120	 1.4493750000e+002	 1.42128e-002
1121	 1.4500000000e+002	 8.13894e-003
1122	 1.4506250000e+002	 5.46695e-003
1123	 1.4512500000e+002	 2.04721e-002
1124	 1.4518750000e+002	 2.37874e-002
1125	 1.4525000000e+002	 8.16713e-003
1126	 1.4531250000e+002	 2.82864e-003
1127	 1.4537500000e+002	 2.14040e-003
1128	 1.4543750000e+002	 6.78848e-003
1129	 1.4550000000e+002	 3.42629e-002
1130	 1.4556250000e+002	 5.07616e-002
1131	 1.4562500000e+002	 3.46143e-002
1132	 1.4568750000e+002	 3.25486e-002
1133	 1.4575000000e+002	 4.10375e-002
1134	 1.4581250000e+002	 7.53036e-002
1135	 1.4587500000e+002	 5.23795e-002
1136	 1.4593750000e+002	 3.12296e-002
1137	 1.4600000000e+002	 3.01903e-002
1138	 1.4606250000e+002	 1.97391e-002
1139	 1.4612500000e+002	 1.98495e-002
1140	 1.4618750000e+002	 1.27752e-002
1141	 1.4625000000e+002	 1.50844e-002
1142	 1.4631250000e+002	 1.79481e-002
1143	 1.4637500000e+002	 1.12342e-002
1144	 1.4643750000e+002	 1.70591e-002
1145	 1.4650000000e+002	 7.61065e-002
1146	 1.4656250000e+002	 9.31031e-002
1147	 1.4662500000e+002	 2.78634e-002
1148	 1.4668750000e+002	 2.62785e-002
1149	 1.4675000000e+002	 3.13855e-002
1150	 1.4681250000e+002	 1.35712e-002
1151	 1.4687500000e+002	 4.88371e-002
1152	 1.4693750000e+002	 3.16729e-002
1153	 1.4700000000e+002	 6.57366e-003
1154	 1.4706250000e+002	 2.16815e-002
1155	 1.4712500000e+002	 3.09544e-002
1156	 1.4718750000e+002	 2.40269e-002
1157	 1.4725000000e+002	 4.81483e-002
1158	 1.4731250000e+002	 6.13870e-002
1159	 1.4737500000e+002	 6.14156e-002
1160	 1.4743750000e+002	 4.92128e-002
1161	 1.4750000000e+002	 8.39602e-002
1162	 1.4756250000e+002	 4.35383e-002
1163	 1.4762500000e+002	 1.12320e-001
1164	 1.4768750000e+002	 8.78662e-002
1165	 1.4775000000e+002	 2.70951e-002
1166	 1.4781250000e+002	 3.20287e-002
1167	 1.4787500000e+002	 3.97689e-002
1168	 1.4793750000e+002	 2.43957e-002
1169	 1.4800000000e+002	 1.15807e-002
1170	 1.4806250000e+002	 4.36312e-002
1171	 1.4812500000e+002	 2.86730e-002
1172	 1.4818750000e+002	 2.55427e-002
1173	 1.4825000000e+002	 1.95929e-002
1174	 1.4831250000e+002	 2.05282e-002
1175	 1.4837500000e+002	 1.35053e-002
1176	 1.4843750000e+002	 6.02606e-003
1177	 1.4850000000e+002	 4.65300e-003
1178	 1.4856250000e+002	 2.05558e-002
1179	 1.4862500000e+002	 3.75332e-002
1180	 1.4868750000e+002	 9.46257e-003
1181	 1.4875000000e+002	 1.01279e-002
1182	 1.4881250000e+002	 1.37977e-002
1183	 1.4887500000e+002	 4.85762e-002
1184	 1.4893750000e+002	 8.39600e-002
1185	 1.4900000000e+002	 5.02864e-002
1186	 1.4906250000e+002	 4.94343e-002
1187	 1.4912500000e+002	 3.95381e-002
1188	 1.4918750000e+002	 1.79664e-002
1189	 1.4925000000e+002	 3.42114e-002
1190	 1.4931250000e+002	 6.35106e-002
1191	 1.4937500000e+002	 6.11913e-002
1192	 1.4943750000e+002	 4.87374e-002
1193	 1.4950000000e+002	 4.55712e-002
1194	 1.4956250000e+002	 5.90811e-002
1195	 1.4962500000e+002	 5.19020e-002
1196	 1.4968750000e+002	 1.65322e-002
1197	 1.4975000000e+002	 1.92284e-002
1198	 1.4981250000e+002	 2.74837e-002
1199	 1.4987500000e+002	 1.82463e-002
1200	 1.4993750000e+002	 1.26956e-002
1201	 1.5000000000e+002	 1.29914e-002
1202	 1.5006250000e+002	 4.95721e-002
1203	 1.5012500000e+002	 5.16082e-002
1204	 1.5018750000e+002	 1.63281e-002
1205	 1.5025000000e+002	 1.50483e-002
1206	 1.5031250000e+002	 1.74777e-002
1207	 1.5037500000e+002	 3.19126e-002
1208	 1.5043750000e+002	 4.77444e-002
1209	 1.5050000000e+002	 1.02049e-001
1210	 1.5056250000e+002	 9.76187e-002
1211	 1.5062500000e+002	 6.28477e-002
1212	 1.5068750000e+002	 5.07013e-002
1213	 1.5075000000e+002	 5.30969e-002
1214	 1.5081250000e+002	 6.03219e-002
1215	 1.5087500000e+002	 1.06515e-001
1216	 1.5093750000e+002	 7.10381e-002
1217	 1.5100000000e+002	 5.64903e-002
1218	 1.5106250000e+002	 7.20445e-002
1219	 1.5112500000e+002	 7.04182e-002
1220	 1.5118750000e+002	 4.41527e-002
1221	 1.5125000000e+002	 4.08866e-002
1222	 1.5131250000e+002	 4.25638e-002
1223	 1.5137500000e+002	 3.88869e-002
1224	 1.5143750000e+002	 5.93209e-002
1225	 1.5150000000e+002	 4.36361e-002
1226	 1.5156250000e+002	 6.17611e-002
1227	 1.5162500000e+002	 7.74360e-002
1228	 1.5168750000e+002	 9.77178e-002
1229	 1.5175000000e+002	 5.20317e-002
1230	 1.5181250000e+002	 1.19543e-001
1231	 1.5187500000e+002	 7.58683e-002
1232	 1.5193750000e+002	 5.04194e-002
1233	 1.5200000000e+002	 6.45995e-002
1234	 1.5206250000e+002	 5.22600e-002
1235	 1.5212500000e+002	 5.75220e-002
1236	 1.5218750000e+002	 3.87615e-002
1237	 1.5225000000e+002	 4.57687e-002
1238	 1.5231250000e+002	 9.00669e-003
1239	 1.5237500000e+002	 1.10456e-002
1240	 1.5243750000e+002	 3.99782e-002
1241	 1.5250000000e+002	 6.56945e-002
1242	 1.5256250000e+002	 3.61325e-002
1243	 1.5262500000e+002	 7.08909e-002
1244	 1.5268750000e+002	 3.53805e-002
1245	 1.5275000000e+002	 3.43965e-002
1246	 1.5281250000e+002	 9.87463e-002
1247	 1.5287500000e+002	 1.10682e-001
1248	 1.5293750000e+002	 1.63562e-001
1249	 1.5300000000e+002	 2.78552e-001
1250	 1.5306250000e+002	 1.56503e-001
1251	 1.5312500000e+002	 3.15495e-002
1252	 1.5318750000e+002	 2.64001e-002
1253	 1.5325000000e+002	 6.19120e-002
1254	 1.5331250000e+002	 1.64199e-001
1255	 1.5337500000e+002	 1.01809e-001
1256	 1.5343750000e+002	 5.49681e-002
1257	 1.5350000000e+002	 3.28010e-002
1258	 1.5356250000e+002	 5.94733e-002
1259	 1.5362500000e+002	 5.63446e-002
1260	 1.5368750000e+002	 2.44042e-002
1261	 1.5375000000e+002	 1.06355e-001
1262	 1.5381250000e+002	 1.52408e-001
1263	 1.5387500000e+002	 1.83163e-001
1264	 1.5393750000e+002	 1.83365e-001
1265	 1.5400000000e+002	 1.52110e-001
1266	 1.5406250000e+002	 1.29685e-001
1267	 1.5412500000e+002	 8.47559e-002
1268	 1.5418750000e+002	 6.69975e-002
1269	 1.5425000000e+002	 1.04585e-001
1270	 1.5431250000e+002	 8.81678e-002
1271	 1.5437500000e+002	 1.40932e-001
1272	 1.5443750000e+002	 2.21957e-001
1273	 1.5450000000e+002	 1.44586e-001
1274	 1.5456250000e+002	 1.85208e-001
1275	 1.5462500000e+002	 2.17679e-001
1276	 1.5468750000e+002	 4.42416e-002
1277	 1.5475000000e+002	 3.48273e-002
1278	 1.5481250000e+002	 6.61180e-002
1279	 1.5487500000e+002	 1.36792e-001
1280	 1.5493750000e+002	 1.53346e-001
1281	 1.5500000000e+002	 1.29765e-001
1282	 1.5506250000e+002	 1.26576e-001
1283	 1.5512500000e+002	 1.88742e-001
1284	 1.5518750000e+002	 2.43582e-001
1285	 1.5525000000e+002	 1.84001e-001
1286	 1.5531250000e+002	 2.43928e-001
1287	 1.5537500000e+002	 5.00459e-001
1288	 1.5543750000e+002	 1.69498e-001
1289	 1.5550000000e+002	 1.23735e-001
1290	 1.5556250000e+002	 2.40457e-001
1291	 1.5562500000e+002	 2.01226e-001
1292	 1.5568750000e+002	 2.67888e-001
1293	 1.5575000000e+002	 3.02632e-001
1294	 1.5581250000e+002	 4.29473e-001
1295	 1.5587500000e+002	 3.05013e-001
1296	 1.5593750000e+002	 1.00418e-001
1297	 1.5600000000e+002	 9.35609e-002
1298	 1.5606250000e+002	 2.23045e-001
1299	 1.5612500000e+002	 3.34731e-001
1300	 1.5618750000e+002	 1.35803e-001
1301	 1.5625000000e+002	 3.84567e-002
1302	 1.5631250000e+002	 1.48187e-001
1303	 1.5637500000e+002	 2.70858e-001
1304	 1.5643750000e+002	 1.84119e-001
1305	 1.5650000000e+002	 5.93087e-002
1306	 1.5656250000e+002	 5.68444e-002
1307	 1.5662500000e+002	 1.73158e-001
1308	 1.5668750000e+002	 1.85606e-001
1309	 1.5675000000e+002	 1.11235e-001
1310	 1.5681250000e+002	 1.62756e-001
1311	 1.5687500000e+002	 2.23898e-001
1312	 1.5693750000e+002	 4.40155e-001
1313	 1.5700000000e+002	 5.87951e-001
1314	 1.5706250000e+002	 2.25430e-001
1315	 1.5712500000e+002	 1.85732e-001
1316	 1.5718750000e+002	 1.14376e-001
1317	 1.5725000000e+002	 6.74021e-002
1318	 1.5731250000e+002	 5.43830e-002
1319	 1.5737500000e+002	 1.10828e-001
1320	 1.5743750000e+002	 9.67338e-002
1321	 1.5750000000e+002	 1.43811e-001
1322	 1.5756250000e+002	 3.25146e-001
1323	 1.5762500000e+002	 3.49443e-001
1324	 1.5768750000e+002	 1.69669e-001
1325	 1.5775000000e+002	 1.67316e-001
1326	 1.5781250000e+002	 4.33454e-001
1327	 1.5787500000e+002	 2.80420e-001
1328	 1.5793750000e+002	 3.09297e-001
1329	 1.5800000000e+002	 3.18330e-001
1330	 1.5806250000e+002	 1.48719e-001
1331	 1.5812500000e+002	 1.56392e-001
1332	 1.5818750000e+002	 4.03173e-001
1333	 1.5825000000e+002	 3.29089e-001
1334	 1.5831250000e+002	 3.51279e-001
1335	 1.5837500000e+002	 1.41849e-001
1336	 1.5843750000e+002	 7.29569e-002
1337	 1.5850000000e+002	 1.41920e-001
1338	 1.5856250000e+002	 1.80296e-001
1339	 1.5862500000e+002	 1.95757e-001
1340	 1.5868750000e+002	 3.91944e-001
1341	 1.5875000000e+002	 5.18749e-001
1342	 1.5881250000e+002	 3.30315e-001
1343	 1.5887500000e+002	 2.52221e-001
1344	 1.5893750000e+002	 4.77389e-001
1345	 1.5900000000e+002	 8.43070e-001
1346	 1.5906250000e+002	 6.40381e-001
1347	 1.5912500000e+002	 3.63847e-001
1348	 1.5918750000e+002	 4.73555e-001
1349	 1.5925000000e+002	 5.62578e-001
1350	 1.5931250000e+002	 7.67308e-001
1351	 1.5937500000e+002	 3.07882e-001
1352	 1.5943750000e+002	 5.38157e-001
1353	 1.5950000000e+002	 5.52061e-001
1354	 1.5956250000e+002	 1.97070e-001
1355	 1.5962500000e+002	 3.19403e-001
1356	 1.5968750000e+002	 1.10638e+000
1357	 1.5975000000e+002	 5.48239e-001
1358	 1.5981250000e+002	 1.35249e-001
1359	 1.5987500000e+002	 8.79560e-002
1360	 1.5993750000e+002	 1.69752e-001
1361	 1.6000000000e+002	 4.55265e-001
1362	 1.6006250000e+002	 1.01302e+000
1363	 1.6012500000e+002	 2.01125e+000
1364	 1.6018750000e+002	 2.12736e+000
1365	 1.6025000000e+002	 1.24332e+000
1366	 1.6031250000e+002	 1.45768e+000
1367	 1.6037500000e+002	 1.60913e+000
1368	 1.6043750000e+002	 8.37959e-001
1369	 1.6050000000e+002	 3.13777e-001
1370	 1.6056250000e+002	 3.67240e-001
1371	 1.6062500000e+002	 6.05385e-001
1372	 1.6068750000e+002	 3.48168e-001
1373	 1.6075000000e+002	 4.64369e-001
1374	 1.6081250000e+002	 1.08580e+000
1375	 1.6087500000e+002	 1.17808e+000
1376	 1.6093750000e+002	 6.79753e-001
1377	 1.6100000000e+002	 1.05909e+000
1378	 1.6106250000e+002	 4.57021e-001
1379	 1.6112500000e+002	 7.72220e-001
1380	 1.6118750000e+002	 1.08963e+000
1381	 1.6125000000e+002	 3.86884e-001
1382	 1.6131250000e+002	 2.00721e-001
1383	 1.6137500000e+002	 4.25983e-001
1384	 1.6143750000e+002	 7.69975e-001
1385	 1.6150000000e+002	 9.83244e-001
1386	 1.6156250000e+002	 4.01061e-001
1387	 1.6162500000e+002	 7.32646e-001
1388	 1.6168750000e+002	 1.08591e+000
1389	 1.6175000000e+002	 6.27860e-001
1390	 1.6181250000e+002	 2.76266e-001
1391	 1.6187500000e+002	 3.36797e-001
1392	 1.6193750000e+002	 5.90024e-001
1393	 1.6200000000e+002	 4.12538e-001
1394	 1.6206250000e+002	 2.82723e-001
1395	 1.6212500000e+002	 5.31193e-001
1396	 1.6218750000e+002	 6.38878e-001
1397	 1.6225000000e+002	 9.31758e-001
1398	 1.6231250000e+002	 7.48230e-001
1399	 1.6237500000e+002	 7.70176e-001
1400	 1.6243750000e+002	 6.27443e-001
1401	 1.6250000000e+002	 5.98347e-001
1402	 1.6256250000e+002	 1.25036e+000
1403	 1.6262500000e+002	 1.45139e+000
1404	 1.6268750000e+002	 4.98271e-001
1405	 1.6275000000e+002	 3.02913e-001
1406	 1.6281250000e+002	 3.41310e-001
1407	 1.6287500000e+002	 1.99757e-001
1408	 1.6293750000e+002	 7.81358e-001
1409	 1.6300000000e+002	 1.18565e+000
1410	 1.6306250000e+002	 6.96935e-001
1411	 1.6312500000e+002	 2.44575e-001
1412	 1.6318750000e+002	 4.72602e-001
1413	 1.6325000000e+002	 4.87187e-001
1414	 1.6331250000e+002	 6.05253e-001
1415	 1.6337500000e+002	 5.05458e-001
1416	 1.6343750000e+002	 5.66190e-001
1417	 1.6350000000e+002	 5.49733e-001
1418	 1.6356250000e+002	 2.70899e-001
1419	 1.6362500000e+002	 2.08285e-001
1420	 1.6368750000e+002	 4.65728e-001
1421	 1.6375000000e+002	 7.79193e-001
1422	 1.6381250000e+002	 4.53507e-001
1423	 1.6387500000e+002	 3.19020e-001
1424	 1.6393750000e+002	 1.30156e-001
1425	 1.6400000000e+002	 4.56478e-001
1426	 1.6406250000e+002	 8.06534e-001
1427	 1.6412500000e+002	 4.66820e-001
1428	 1.6418750000e+002	 4.66218e-001
1429	 1.6425000000e+002	 6.62342e-001
1430	 1.6431250000e+002	 8.50224e-001
1431	 1.6437500000e+002	 4.79530e-001
1432	 1.6443750000e+002	 2.39023e-001
1433	 1.6450000000e+002	 2.28365e-001
1434	 1.6456250000e+002	 3.48797e-001
1435	 1.6462500000e+002	 7.32083e-001
1436	 1.6468750000e+002	 7.64076e-001
1437	 1.6475000000e+002	 5.13198e-001
1438	 1.6481250000e+002	 3.25628e-001
1439	 1.6487500000e+002	 1.70518e-001
1440	 1.6493750000e+002	 3.52607e-001
1441	 1.6500000000e+002	 3.20029e-001
1442	 1.6506250000e+002	 2.92033e-001
1443	 1.6512500000e+002	 2.64566e-001
1444	 1.6518750000e+002	 3.90554e-001
1445	 1.6525000000e+002	 4.23763e-001
1446	 1.6531250000e+002	 4.11725e-001
1447	 1.6537500000e+002	 4.84319e-001
1448	 1.6543750000e+002	 3.02426e-001
1449	 1.6550000000e+002	 2.55819e-001
1450	 1.6556250000e+002	 1.75875e-001
1451	 1.6562500000e+002	 1.57754e-001
1452	 1.6568750000e+002	 6.01965e-002
1453	 1.6575000000e+002	 1.22562e-001
1454	 1.6581250000e+002	 1.95113e-001
1455	 1.6587500000e+002	 2.28249e-001
1456	 1.6593750000e+002	 6.77517e-002
1457	 1.6600000000e+002	 1.20577e-001
1458	 1.6606250000e+002	 9.86170e-002
1459	 1.6612500000e+002	 1.99521e-001
1460	 1.6618750000e+002	 2.11505e-001
1461	 1.6625000000e+002	 1.15206e-001
1462	 1.6631250000e+002	 2.66808e-001
1463	 1.6637500000e+002	 2.42177e-001
1464	 1.6643750000e+002	 9.48178e-002
1465	 1.6650000000e+002	 5.72682e-002
1466	 1.6656250000e+002	 1.02607e-001
1467	 1.6662500000e+002	 1.19609e-001
1468	 1.6668750000e+002	 1.29423e-001
1469	 1.6675000000e+002	 1.01389e-001
1470	 1.6681250000e+002	 1.12670e-001
1471	 1.6687500000e+002	 1.70230e-001
1472	 1.6693750000e+002	 1.10357e-001
1473	 1.6700000000e+002	 1.09545e-001
1474	 1.6706250000e+002	 1.52107e-001
1475	 1.6712500000e+002	 1.83768e-001
1476	 1.6718750000e+002	 1.88565e-001
1477	 1.6725000000e+002	 1.39853e-001
1478	 1.6731250000e+002	 1.51250e-001
1479	 1.6737500000e+002	 1.04710e-001
1480	 1.6743750000e+002	 1.38020e-001
1481	 1.6750000000e+002	 2.39660e-001
1482	 1.6756250000e+002	 1.48456e-001
1483	 1.6762500000e+002	 5.69461e-002
1484	 1.6768750000e+002	 1.16293e-001
1485	 1.6775000000e+002	 1.54853e-001
1486	 1.6781250000e+002	 1.15997e-001
1487	 1.6787500000e+002	 1.69935e-001
1488	 1.6793750000e+002	 1.39354e-001
1489	 1.6800000000e+002	 1.45650e-001
1490	 1.6806250000e+002	 1.73805e-001
1491	 1.6812500000e+002	 1.90428e-001
1492	 1.6818750000e+002	 2.68453e-001
1493	 1.6825000000e+002	 1.82132e-001
1494	 1.6831250000e+002	 8.33065e-002
1495	 1.6837500000e+002	 7.68647e-002
1496	 1.6843750000e+002	 7.34981e-002
1497	 1.6850000000e+002	 1.46514e-001
1498	 1.6856250000e+002	 1.33888e-001
1499	 1.6862500000e+002	 1.92116e-001
1500	 1.6868750000e+002	 3.95761e-002
1501	 1.6875000000e+002	 5.80462e-002
1502	 1.6881250000e+002	 1.15534e-001
1503	 1.6887500000e+002	 1.31776e-001
1504	 1.6893750000e+002	 1.69328e-001
1505	 1.6900000000e+002	 8.79881e-002
1506	 1.6906250000e+002	 9.03045e-002
1507	 1.6912500000e+002	 1.24812e-001
1508	 1.6918750000e+002	 1.43083e-001
1509	 1.6925000000e+002	 1.90191e-001
1510	 1.6931250000e+002	 3.92040e-001
1511	 1.6937500000e+002	 2.29743e-001
1512	 1.6943750000e+002	 7.69587e-002
1513	 1.6950000000e+002	 1.19127e-001
1514	 1.6956250000e+002	 1.37290e-001
1515	 1.6962500000e+002	 1.82197e-001
1516	 1.6968750000e+002	 1.41755e-001
1517	 1.6975000000e+002	 1.64564e-001
1518	 1.6981250000e+002	 2.42824e-001
1519	 1.6987500000e+002	 3.99079e-001
1520	 1.6993750000e+002	 2.34951e-001
1521	 1.7000000000e+002	 9.26256e-002
1522	 1.7006250000e+002	 6.32574e-002
1523	 1.7012500000e+002	 1.12800e-001
1524	 1.7018750000e+002	 9.39751e-002
1525	 1.7025000000e+002	 5.19023e-002
1526	 1.7031250000e+002	 3.67683e-002
1527	 1.7037500000e+002	 3.64823e-002
1528	 1.7043750000e+002	 4.70692e-002
1529	 1.7050000000e+002	 4.80179e-002
1530	 1.7056250000e+002	 7.32602e-002
1531	 1.7062500000e+002	 9.76376e-002
1532	 1.7068750000e+002	 8.02289e-002
1533	 1.7075000000e+002	 5.02081e-002
1534	 1.7081250000e+002	 3.34687e-002
1535	 1.7087500000e+002	 4.63435e-002
1536	 1.7093750000e+002	 9.41566e-002
1537	 1.7100000000e+002	 5.68544e-002
1538	 1.7106250000e+002	 6.72342e-002
1539	 1.7112500000e+002	 1.30819e-001
1540	 1.7118750000e+002	 1.49921e-001
1541	 1.7125000000e+002	 1.28778e-001
1542	 1.7131250000e+002	 5.89103e-002
1543	 1.7137500000e+002	 4.02902e-002
1544	 1.7143750000e+002	 5.99843e-002
1545	 1.7150000000e+002	 2.77479e-002
1546	 1.7156250000e+002	 4.47302e-002
1547	 1.7162500000e+002	 3.03598e-002
1548	 1.7168750000e+002	 2.06402e-002
1549	 1.7175000000e+002	 1.55109e-002
1550	 1.7181250000e+002	 2.16549e-002
1551	 1.7187500000e+002	 1.81511e-002
1552	 1.7193750000e+002	 1.70999e-002
1553	 1.7200000000e+002	 1.70133e-002
1554	 1.7206250000e+002	 3.71653e-002
1555	 1.7212500000e+002	 6.62460e-002
1556	 1.7218750000e+002	 1.19296e-001
1557	 1.7225000000e+002	 1.12418e-001
1558	 1.7231250000e+002	 5.09399e-002
1559	 1.7237500000e+002	 8.64968e-002
1560	 1.7243750000e+002	 3.38642e-002
1561	 1.7250000000e+002	 1.39452e-002
1562	 1.7256250000e+002	 6.16004e-002
1563	 1.7262500000e+002	 9.25440e-002
1564	 1.7268750000e+002	 8.99082e-002
1565	 1.7275000000e+002	 7.93846e-002
1566	 1.7281250000e+002	 4.41704e-002
1567	 1.7287500000e+002	 4.05342e-002
1568	 1.7293750000e+002	 2.38947e-002
1569	 1.7300000000e+002	 2.24751e-002
1570	 1.7306250000e+002	 3.52640e-002
1571	 1.7312500000e+002	 7.01628e-002
1572	 1.7318750000e+002	 5.69106e-002
1573	 1.7325000000e+002	 8.78531e-002
1574	 1.7331250000e+002	 6.82570e-002
1575	 1.7337500000e+002	 4.56721e-002
1576	 1.7343750000e+002	 5.03095e-002
1577	 1.7350000000e+002	 1.29971e-002
1578	 1.7356250000e+002	 1.60086e-002
1579	 1.7362500000e+002	 2.81535e-002
1580	 1.7368750000e+002	 7.73298e-002
1581	 1.7375000000e+002	 6.84060e-002
1582	 1.7381250000e+002	 7.54837e-002
1583	 1.7387500000e+002	 5.21977e-002
1584	 1.7393750000e+002	 3.18943e-002
1585	 1.7400000000e+002	 2.33974e-002
1586	 1.7406250000e+002	 2.30271e-002
1587	 1.7412500000e+002	 1.82586e-002
1588	 1.7418750000e+002	 2.66835e-002
1589	 1.7425000000e+002	 2.07323e-002
1590	 1.7431250000e+002	 1.32280e-002
1591	 1.7437500000e+002	 3.52273e-002
1592	 1.7443750000e+002	 4.16520e-002
1593	 1.7450000000e+002	 5.25469e-002
1594	 1.7456250000e+002	 3.97879e-002
1595	 1.7462500000e+002	 1.36874e-002
1596	 1.7468750000e+002	 3.78970e-002
1597	 1.7475000000e+002	 7.88188e-002
1598	 1.7481250000e+002	 1.04437e-001
1599	 1.7487500000e+002	 8.24032e-002
1600	 1.7493750000e+002	 2.42977e-002
1601	 1.7500000000e+002	 3.25910e-002
1602	 1.7506250000e+002	 7.64775e-002
1603	 1.7512500000e+002	 8.21293e-002
1604	 1.7518750000e+002	 4.28242e-002
1605	 1.7525000000e+002	 5.40793e-002
1606	 1.7531250000e+002	 4.72327e-002
1607	 1.7537500000e+002	 2.20389e-002
1608	 1.7543750000e+002	 1.88374e-002
1609	 1.7550000000e+002	 1.36482e-002
1610	 1.7556250000e+002	 4.07033e-002
1611	 1.7562500000e+002	 5.87655e-002
1612	 1.7568750000e+002	 1.41333e-002
1613	 1.7575000000e+002	 6.71754e-003
1614	 1.7581250000e+002	 1.13456e-002
1615	 1.7587500000e+002	 3.25949e-002
1616	 1.7593750000e+002	 3.31936e-002
1617	 1.7600000000e+002	 3.76054e-002
1618	 1.7606250000e+002	 7.65559e-002
1619	 1.7612500000e+002	 4.93318e-002
1620	 1.7618750000e+002	 2.81980e-002
1621	 1.7625000000e+002	 4.21357e-002
1622	 1.7631250000e+002	 3.95843e-002
1623	 1.7637500000e+002	 2.30279e-002
1624	 1.7643750000e+002	 6.62060e-002
1625	 1.7650000000e+002	 7.63840e-002
1626	 1.7656250000e+002	 2.59087e-002
1627	 1.7662500000e+002	 2.11476e-002
1628	 1.7668750000e+002	 1.46486e-002
1629	 1.7675000000e+002	 9.56473e-003
1630	 1.7681250000e+002	 1.66525e-002
1631	 1.7687500000e+002	 1.90458e-002
1632	 1.7693750000e+002	 3.90034e-002
1633	 1.7700000000e+002	 5.39576e-002
1634	 1.7706250000e+002	 2.65971e-002
1635	 1.7712500000e+002	 2.74717e-002
1636	 1.7718750000e+002	 3.19369e-002
1637	 1.7725000000e+002	 5.80348e-003
1638	 1.7731250000e+002	 5.33493e-003
1639	 1.7737500000e+002	 2.07997e-002
1640	 1.7743750000e+002	 4.25637e-002
1641	 1.7750000000e+002	 2.78424e-002
1642	 1.7756250000e+002	 8.84772e-003
1643	 1.7762500000e+002	 9.24820e-003
1644	 1.7768750000e+002	 1.26653e-002
1645	 1.7775000000e+002	 3.59709e-002
1646	 1.7781250000e+002	 3.73177e-002
1647	 1.7787500000e+002	 2.40554e-002
1648	 1.7793750000e+002	 2.24567e-002
1649	 1.7800000000e+002	 1.95450e-002
1650	 1.7806250000e+002	 3.25457e-002
1651	 1.7812500000e+002	 6.11821e-002
1652	 1.7818750000e+002	 5.20776e-002
1653	 1.7825000000e+002	 4.81447e-002
1654	 1.7831250000e+002	 3.65589e-002
1655	 1.7837500000e+002	 5.56901e-002
1656	 1.7843750000e+002	 4.71473e-002
1657	 1.7850000000e+002	 4.87604e-002
1658	 1.7856250000e+002	 2.19868e-002
1659	 1.7862500000e+002	 5.49157e-002
1660	 1.7868750000e+002	 3.25212e-002
1661	 1.7875000000e+002	 2.90689e-002
1662	 1.7881250000e+002	 4.55852e-002
1663	 1.7887500000e+002	 3.59276e-002
1664	 1.7893750000e+002	 2.04716e-002
1665	 1.7900000000e+002	 1.47054e-002
1666	 1.7906250000e+002	 1.27800e-002
1667	 1.7912500000e+002	 1.80144e-002
1668	 1.7918750000e+002	 2.21814e-002
1669	 1.7925000000e+002	 5.85487e-002
1670	 1.7931250000e+002	 4.21766e-002
1671	 1.7937500000e+002	 1.59937e-002
1672	 1.7943750000e+002	 2.53711e-002
1673	 1.7950000000e+002	 5.86924e-002
1674	 1.7956250000e+002	 4.27574e-002
1675	 1.7962500000e+002	 4.53279e-002
1676	 1.7968750000e+002	 2.78493e-002
1677	 1.7975000000e+002	 1.54878e-002
1678	 1.7981250000e+002	 2.30866e-002
1679	 1.7987500000e+002	 1.57307e-002
1680	 1.7993750000e+002	 2.43841e-002
1681	 1.8000000000e+002	 1.33319e-002
1682	 1.8006250000e+002	 2.17006e-002
1683	 1.8012500000e+002	 8.89323e-003
1684	 1.8018750000e+002	 9.17309e-003
1685	 1.8025000000e+002	 4.07641e-002
1686	 1.8031250000e+002	 2.53526e-002
1687	 1.8037500000e+002	 1.89309e-002
1688	 1.8043750000e+002	 4.61275e-002
1689	 1.8050000000e+002	 2.63878e-002
1690	 1.8056250000e+002	 3.20614e-002
1691	 1.8062500000e+002	 5.34170e-002
1692	 1.8068750000e+002	 1.07981e-001
1693	 1.8075000000e+002	 9.95232e-002
1694	 1.8081250000e+002	 4.23044e-002
1695	 1.8087500000e+002	 1.29031e-002
1696	 1.8093750000e+002	 1.61070e-002
1697	 1.8100000000e+002	 1.73260e-002
1698	 1.8106250000e+002	 4.83140e-002
1699	 1.8112500000e+002	 4.37911e-002
1700	 1.8118750000e+002	 9.48460e-003
1701	 1.8125000000e+002	 1.32894e-002
1702	 1.8131250000e+002	 3.78772e-002
1703	 1.8137500000e+002	 4.13577e-002
1704	 1.8143750000e+002	 3.51024e-002
1705	 1.8150000000e+002	 8.37566e-002
1706	 1.8156250000e+002	 8.21988e-002
1707	 1.8162500000e+002	 2.59732e-002
1708	 1.8168750000e+002	 2.11002e-002
1709	 1.8175000000e+002	 3.05782e-002
1710	 1.8181250000e+002	 1.64193e-002
1711	 1.8187500000e+002	 4.22416e-002
1712	 1.8193750000e+002	 9.11546e-002
1713	 1.8200000000e+002	 7.41626e-002
1714	 1.8206250000e+002	 4.88739e-002
1715	 1.8212500000e+002	 8.38293e-002
1716	 1.8218750000e+002	 2.93559e-002
1717	 1.8225000000e+002	 1.99024e-002
1718	 1.8231250000e+002	 3.61296e-002
1719	 1.8237500000e+002	 2.23742e-002
1720	 1.8243750000e+002	 1.64415e-002
1721	 1.8250000000e+002	 1.89303e-002
1722	 1.8256250000e+002	 1.15601e-002
1723	 1.8262500000e+002	 5.24927e-002
1724	 1.8268750000e+002	 5.12887e-002
1725	 1.8275000000e+002	 3.21711e-002
1726	 1.8281250000e+002	 2.55164e-002
1727	 1.8287500000e+002	 2.25473e-002
1728	 1.8293750000e+002	 2.51615e-002
1729	 1.8300000000e+002	 5.85541e-002
1730	 1.8306250000e+002	 3.57315e-002
1731	 1.8312500000e+002	 1.98467e-002
1732	 1.8318750000e+002	 3.09985e-002
1733	 1.8325000000e+002	 4.48228e-002
1734	 1.8331250000e+002	 4.84603e-002
1735	 1.8337500000e+002	 9.03311e-003
1736	 1.8343750000e+002	 4.26326e-002
1737	 1.8350000000e+002	 4.40298e-002
1738	 1.8356250000e+002	 4.75095e-002
1739	 1.8362500000e+002	 2.05111e-002
1740	 1.8368750000e+002	 3.80591e-002
1741	 1.8375000000e+002	 3.99183e-002
1742	 1.8381250000e+002	 5.50700e-002
1743	 1.8387500000e+002	 2.77931e-002
1744	 1.8393750000e+002	 2.49314e-002
1745	 1.8400000000e+002	 4.76137e-002
1746	 1.8406250000e+002	 3.63989e-002
1747	 1.8412500000e+002	 5.92434e-002
1748	 1.8418750000e+002	 5.52469e-002
1749	 1.8425000000e+002	 1.97709e-002
1750	 1.8431250000e+002	 3.04399e-002
1751	 1.8437500000e+002	 3.63706e-002
1752	 1.8443750000e+002	 4.45002e-002
1753	 1.8450000000e+002	 1.56965e-002
1754	 1.8456250000e+002	 2.45188e-002
1755	 1.8462500000e+002	 5.46904e-002
1756	 1.8468750000e+002	 3.74748e-002
1757	 1.8475000000e+002	 2.78886e-002
1758	 1.8481250000e+002	 3.51472e-002
1759	 1.8487500000e+002	 3.17867e-002
1760	 1.8493750000e+002	 1.01749e-002
1761	 1.8500000000e+002	 9.77358e-003
1762	 1.8506250000e+002	 1.66018e-002
1763	 1.8512500000e+002	 5.90984e-003
1764	 1.8518750000e+002	 5.32597e-003
1765	 1.8525000000e+002	 9.71585e-003
1766	 1.8531250000e+002	 2.21948e-002
1767	 1.8537500000e+002	 3.89195e-002
1768	 1.8543750000e+002	 4.56500e-002
1769	 1.8550000000e+002	 4.12417e-002
1770	 1.8556250000e+002	 2.22861e-002
1771	 1.8562500000e+002	 1.67874e-002
1772	 1.8568750000e+002	 9.38175e-003
1773	 1.8575000000e+002	 2.63536e-002
1774	 1.8581250000e+002	 3.48116e-002
1775	 1.8587500000e+002	 2.60987e-002
1776	 1.8593750000e+002	 2.27809e-002
1777	 1.8600000000e+002	 3.42967e-002
1778	 1.8606250000e+002	 2.60279e-002
1779	 1.8612500000e+002	 1.18283e-002
1780	 1.8618750000e+002	 2.00632e-002
1781	 1.8625000000e+002	 5.36373e-002
1782	 1.8631250000e+002	 6.86141e-002
1783	 1.8637500000e+002	 7.74102e-002
1784	 1.8643750000e+002	 1.92593e-002
1785	 1.8650000000e+002	 1.06303e-002
1786	 1.8656250000e+002	 3.45855e-002
1787	 1.8662500000e+002	 3.87595e-002
1788	 1.8668750000e+002	 7.96746e-002
1789	 1.8675000000e+002	 6.68405e-002
1790	 1.8681250000e+002	 1.37705e-002
1791	 1.8687500000e+002	 2.28801e-002
1792	 1.8693750000e+002	 2.58707e-002
1793	 1.8700000000e+002	 1.20815e-002
1794	 1.8706250000e+002	 4.11813e-003
1795	 1.8712500000e+002	 3.11030e-002
1796	 1.8718750000e+002	 4.59132e-002
1797	 1.8725000000e+002	 1.91268e-002
1798	 1.8731250000e+002	 4.01605e-002
1799	 1.8737500000e+002	 4.08276e-002
1800	 1.8743750000e+002	 1.39290e-002
1801	 1.8750000000e+002	 6.90837e-003
1802	 1.8756250000e+002	 4.06354e-003
1803	 1.8762500000e+002	 7.39764e-003
1804	 1.8768750000e+002	 2.02100e-002
1805	 1.8775000000e+002	 1.95534e-002
1806	 1.8781250000e+002	 2.81821e-002
1807	 1.8787500000e+002	 3.20691e-002
1808	 1.8793750000e+002	 2.46698e-002
1809	 1.8800000000e+002	 2.18463e-002
1810	 1.8806250000e+002	 3.08317e-002
1811	 1.8812500000e+002	 4.82060e-002
1812	 1.8818750000e+002	 9.69446e-003
1813	 1.8825000000e+002	 2.90215e-002
1814	 1.8831250000e+002	 3.84376e-002
1815	 1.8837500000e+002	 2.06017e-002
1816	 1.8843750000e+002	 1.18892e-002
1817	 1.8850000000e+002	 4.43502e-003
1818	 1.8856250000e+002	 6.83075e-003
1819	 1.8862500000e+002	 2.08616e-002
1820	 1.8868750000e+002	 3.94695e-002
1821	 1.8875000000e+002	 2.26444e-002
1822	 1.8881250000e+002	 2.92302e-002
1823	 1.8887500000e+002	 2.96460e-002
1824	 1.8893750000e+002	 3.40956e-002
1825	 1.8900000000e+002	 2.49504e-002
1826	 1.8906250000e+002	 1.63660e-002
1827	 1.8912500000e+002	 2.46649e-002
1828	 1.8918750000e+002	 2.20279e-002
1829	 1.8925000000e+002	 2.21609e-002
1830	 1.8931250000e+002	 2.07171e-002
1831	 1.8937500000e+002	 4.53880e-002
1832	 1.8943750000e+002	 2.57801e-002
1833	 1.8950000000e+002	 4.44575e-002
1834	 1.8956250000e+002	 3.00987e-002
1835	 1.8962500000e+002	 2.09942e-002
1836	 1.8968750000e+002	 9.61346e-003
1837	 1.8975000000e+002	 1.33696e-002
1838	 1.8981250000e+002	 6.04389e-003
1839	 1.8987500000e+002	 5.74422e-003
1840	 1.8993750000e+002	 1.63789e-002
1841	 1.9000000000e+002	 2.14980e-002
1842	 1.9006250000e+002	 2.31336e-002
1843	 1.9012500000e+002	 3.15861e-002
1844	 1.9018750000e+002	 1.88433e-002
1845	 1.9025000000e+002	 5.88931e-002
1846	 1.9031250000e+002	 6.28022e-002
1847	 1.9037500000e+002	 9.83512e-002
1848	 1.9043750000e+002	 9.29245e-002
1849	 1.9050000000e+002	 2.95857e-002
1850	 1.9056250000e+002	 2.64276e-002
1851	 1.9062500000e+002	 4.36650e-002
1852	 1.9068750000e+002	 4.43508e-002
1853	 1.9075000000e+002	 3.40060e-002
1854	 1.9081250000e+002	 2.33613e-002
1855	 1.9087500000e+002	 3.28460e-002
1856	 1.9093750000e+002	 4.99656e-002
1857	 1.9100000000e+002	 8.40979e-002
1858	 1.9106250000e+002	 3.10127e-002
1859	 1.9112500000e+002	 1.68272e-002
1860	 1.9118750000e+002	 2.60774e-002
1861	 1.9125000000e+002	 2.15447e-002
1862	 1.9131250000e+002	 3.16675e-002
1863	 1.9137500000e+002	 2.05975e-002
1864	 1.9143750000e+002	 3.57183e-002
1865	 1.9150000000e+002	 2.95432e-002
1866	 1.9156250000e+002	 1.08981e-002
1867	 1.9162500000e+002	 1.68510e-002
1868	 1.9168750000e+002	 4.64003e-002
1869	 1.9175000000e+002	 3.35519e-002
1870	 1.9181250000e+002	 2.08020e-002
1871	 1.9187500000e+002	 4.46559e-002
1872	 1.9193750000e+002	 2.14701e-002
1873	 1.9200000000e+002	 2.23827e-002
1874	 1.9206250000e+002	 3.31205e-002
1875	 1.9212500000e+002	 2.48452e-002
1876	 1.9218750000e+002	 6.58571e-002
1877	 1.9225000000e+002	 7.01861e-002
1878	 1.9231250000e+002	 3.74902e-002
1879	 1.9237500000e+002	 2.44697e-002
1880	 1.9243750000e+002	 4.50953e-002
1881	 1.9250000000e+002	 5.72829e-002
1882	 1.9256250000e+002	 3.27840e-002
1883	 1.9262500000e+002	 2.43568e-002
1884	 1.9268750000e+002	 1.97231e-002
1885	 1.9275000000e+002	 2.16940e-002
1886	 1.9281250000e+002	 5.18311e-002
1887	 1.9287500000e+002	 3.16066e-002
1888	 1.9293750000e+002	 2.00237e-002
1889	 1.9300000000e+002	 1.91359e-002
1890	 1.9306250000e+002	 1.55494e-002
1891	 1.9312500000e+002	 2.86000e-002
1892	 1.9318750000e+002	 3.18050e-002
1893	 1.9325000000e+002	 1.96071e-002
1894	 1.9331250000e+002	 4.52857e-002
1895	 1.9337500000e+002	 5.04557e-002
1896	 1.9343750000e+002	 2.10586e-002
1897	 1.9350000000e+002	 3.90567e-002
1898	 1.9356250000e+002	 3.04590e-002
1899	 1.9362500000e+002	 3.92470e-002
1900	 1.9368750000e+002	 5.26455e-002
1901	 1.9375000000e+002	 5.19030e-002
1902	 1.9381250000e+002	 1.61056e-002
1903	 1.9387500000e+002	 1.19718e-002
1904	 1.9393750000e+002	 2.53588e-002
1905	 1.9400000000e+002	 2.44407e-002
1906	 1.9406250000e+002	 1.82387e-002
1907	 1.9412500000e+002	 7.43726e-003
1908	 1.9418750000e+002	 1.52120e-002
1909	 1.9425000000e+002	 2.04751e-002
1910	 1.9431250000e+002	 2.10131e-002
1911	 1.9437500000e+002	 2.53111e-002
1912	 1.9443750000e+002	 4.73846e-002
1913	 1.9450000000e+002	 2.89423e-002
1914	 1.9456250000e+002	 3.50816e-002
1915	 1.9462500000e+002	 2.85432e-002
1916	 1.9468750000e+002	 6.51047e-002
1917	 1.9475000000e+002	 5.16056e-002
1918	 1.9481250000e+002	 2.96203e-002
1919	 1.9487500000e+002	 2.74074e-002
1920	 1.9493750000e+002	 1.17796e-002
1921	 1.9500000000e+002	 3.24160e-002
1922	 1.9506250000e+002	 4.95149e-002
1923	 1.9512500000e+002	 2.94567e-002
1924	 1.9518750000e+002	 1.84855e-002
1925	 1.9525000000e+002	 1.52345e-002
1926	 1.9531250000e+002	 2.46446e-002
1927	 1.9537500000e+002	 3.19151e-002
1928	 1.9543750000e+002	 3.31747e-002
1929	 1.9550000000e+002	 3.76130e-002
1930	 1.9556250000e+002	 2.35941e-002
1931	 1.9562500000e+002	 4.40837e-002
1932	 1.9568750000e+002	 6.03324e-002
1933	 1.9575000000e+002	 1.52354e-002
1934	 1.9581250000e+002	 2.20981e-002
1935	 1.9587500000e+002	 4.35963e-002
1936	 1.9593750000e+002	 2.76136e-002
1937	 1.9600000000e+002	 1.58519e-002
1938	 1.9606250000e+002	 2.08452e-002
1939	 1.9612500000e+002	 1.82428e-002
1940	 1.9618750000e+002	 2.26572e-002
1941	 1.9625000000e+002	 1.15136e-002
1942	 1.9631250000e+002	 1.57324e-002
1943	 1.9637500000e+002	 1.07936e-002
1944	 1.9643750000e+002	 3.16575e-003
1945	 1.9650000000e+002	 8.76101e-003
1946	 1.9656250000e+002	 1.36250e-002
1947	 1.9662500000e+002	 3.42794e-002
1948	 1.9668750000e+002	 5.02613e-002
1949	 1.9675000000e+002	 2.56218e-002
1950	 1.9681250000e+002	 1.42572e-002
1951	 1.9687500000e+002	 1.23359e-002
1952	 1.9693750000e+002	 5.19760e-002
1953	 1.9700000000e+002	 6.48436e-002
1954	 1.9706250000e+002	 3.96602e-002
1955	 1.9712500000e+002	 3.88112e-002
1956	 1.9718750000e+002	 3.99779e-002
1957	 1.9725000000e+002	 3.57679e-002
1958	 1.9731250000e+002	 3.23003e-002
1959	 1.9737500000e+002	 2.05424e-002
1960	 1.9743750000e+002	 2.75120e-002
1961	 1.9750000000e+002	 6.03717e-002
1962	 1.9756250000e+002	 9.35383e-002
1963	 1.9762500000e+002	 5.60314e-002
1964	 1.9768750000e+002	 4.10294e-002
1965	 1.9775000000e+002	 2.27076e-002
1966	 1.9781250000e+002	 1.40828e-002
1967	 1.9787500000e+002	 4.07025e-002
1968	 1.9793750000e+002	 1.30481e-001
1969	 1.9800000000e+002	 6.49912e-002
1970	 1.9806250000e+002	 2.53676e-002
1971	 1.9812500000e+002	 3.03717e-002
1972	 1.9818750000e+002	 3.56556e-002
1973	 1.9825000000e+002	 2.66107e-002
1974	 1.9831250000e+002	 3.47919e-002
1975	 1.9837500000e+002	 5.04961e-002
1976	 1.9843750000e+002	 4.89509e-002
1977	 1.9850000000e+002	 1.57007e-002
1978	 1.9856250000e+002	 1.83801e-002
1979	 1.9862500000e+002	 1.89097e-002
1980	 1.9868750000e+002	 1.48801e-002
1981	 1.9875000000e+002	 4.87218e-002
1982	 1.9881250000e+002	 6.65751e-002
1983	 1.9887500000e+002	 3.73688e-002
1984	 1.9893750000e+002	 3.77030e-002
1985	 1.9900000000e+002	 5.79588e-002
1986	 1.9906250000e+002	 6.06910e-002
1987	 1.9912500000e+002	 3.27769e-002
1988	 1.9918750000e+002	 3.80177e-002
1989	 1.9925000000e+002	 6.86669e-002
1990	 1.9931250000e+002	 2.00045e-002
1991	 1.9937500000e+002	 3.61231e-002
1992	 1.9943750000e+002	 4.67688e-002
1993	 1.9950000000e+002	 3.76612e-002
1994	 1.9956250000e+002	 2.43309e-002
1995	 1.9962500000e+002	 3.64306e-002
1996	 1.9968750000e+002	 2.52094e-002
1997	 1.9975000000e+002	 1.26028e-002
1998	 1.9981250000e+002	 2.82620e-002
1999	 1.9987500000e+002	 8.33296e-002
2000	 1.9993750000e+002	 5.86873e-002
2001	 2.0000000000e+002	 1.95985e-002
2002	 2.0006250000e+002	 3.37810e-002
2003	 2.0012500000e+002	 5.60317e-002
2004	 2.0018750000e+002	 5.11479e-002
2005	 2.0025000000e+002	 9.83564e-002
2006	 2.0031250000e+002	 4.87108e-002
2007	 2.0037500000e+002	 2.33200e-002
2008	 2.0043750000e+002	 2.04366e-002
2009	 2.0050000000e+002	 2.67293e-002
2010	 2.0056250000e+002	 2.13838e-002
2011	 2.0062500000e+002	 1.69386e-002
2012	 2.0068750000e+002	 3.32570e-002
2013	 2.0075000000e+002	 2.36091e-002
2014	 2.0081250000e+002	 1.81887e-002
2015	 2.0087500000e+002	 2.49671e-002
2016	 2.0093750000e+002	 4.02240e-002
2017	 2.0100000000e+002	 6.42486e-002
2018	 2.0106250000e+002	 2.85078e-002
2019	 2.0112500000e+002	 3.05818e-002
2020	 2.0118750000e+002	 4.34863e-002
2021	 2.0125000000e+002	 3.99205e-002
2022	 2.0131250000e+002	 2.60091e-002
2023	 2.0137500000e+002	 4.73958e-002
2024	 2.0143750000e+002	 2.22250e-002
2025	 2.0150000000e+002	 1.77270e-002
2026	 2.0156250000e+002	 3.98593e-002
2027	 2.0162500000e+002	 4.54241e-002
2028	 2.0168750000e+002	 1.05133e-001
2029	 2.0175000000e+002	 7.40362e-002
2030	 2.0181250000e+002	 5.92542e-002
2031	 2.0187500000e+002	 1.05526e-001
2032	 2.0193750000e+002	 5.20384e-002
2033	 2.0200000000e+002	 7.75576e-002
2034	 2.0206250000e+002	 6.85624e-002
2035	 2.0212500000e+002	 3.55944e-002
2036	 2.0218750000e+002	 6.19128e-002
2037	 2.0225000000e+002	 4.37674e-002
2038	 2.0231250000e+002	 6.90367e-002
2039	 2.0237500000e+002	 1.54202e-001
2040	 2.0243750000e+002	 1.22469e-001
2041	 2.0250000000e+002	 1.20530e-001
2042	 2.0256250000e+002	 6.68386e-002
2043	 2.0262500000e+002	 8.33310e-002
2044	 2.0268750000e+002	 4.63597e-002
2045	 2.0275000000e+002	 2.64507e-002
2046	 2.0281250000e+002	 6.33698e-002
2047	 2.0287500000e+002	 4.41570e-002
2048	 2.0293750000e+002	 4.92448e-002
2049	 2.0300000000e+002	 1.10394e-001
2050	 2.0306250000e+002	 7.48029e-002
2051	 2.0312500000e+002	 3.38416e-002
2052	 2.0318750000e+002	 4.42177e-002
2053	 2.0325000000e+002	 1.16460e-001
2054	 2.0331250000e+002	 1.04417e-001
2055	 2.0337500000e+002	 4.07814e-002
2056	 2.0343750000e+002	 2.48633e-002
2057	 2.0350000000e+002	 3.72733e-002
2058	 2.0356250000e+002	 1.03806e-001
2059	 2.0362500000e+002	 9.72326e-002
2060	 2.0368750000e+002	 3.78647e-002
2061	 2.0375000000e+002	 1.97039e-002
2062	 2.0381250000e+002	 5.72716e-002
2063	 2.0387500000e+002	 4.81742e-002
2064	 2.0393750000e+002	 4.23750e-002
2065	 2.0400000000e+002	 5.38108e-002
2066	 2.0406250000e+002	 1.25704e-001
2067	 2.0412500000e+002	 1.60332e-001
2068	 2.0418750000e+002	 1.02326e-001
2069	 2.0425000000e+002	 7.87274e-002
2070	 2.0431250000e+002	 5.90713e-002
2071	 2.0437500000e+002	 3.86308e-002
2072	 2.0443750000e+002	 2.52412e-002
2073	 2.0450000000e+002	 3.55256e-002
2074	 2.0456250000e+002	 4.46031e-002
2075	 2.0462500000e+002	 2.76601e-002
2076	 2.0468750000e+002	 1.94876e-002
2077	 2.0475000000e+002	 1.01082e-002
2078	 2.0481250000e+002	 6.17035e-002
2079	 2.0487500000e+002	 8.46898e-002
2080	 2.0493750000e+002	 4.43923e-002
2081	 2.0500000000e+002	 3.61627e-002
2082	 2.0506250000e+002	 5.03628e-002
2083	 2.0512500000e+002	 6.07790e-002
2084	 2.0518750000e+002	 1.20644e-001
2085	 2.0525000000e+002	 2.44762e-001
2086	 2.0531250000e+002	 1.33813e-001
2087	 2.0537500000e+002	 9.17953e-002
2088	 2.0543750000e+002	 5.58823e-002
2089	 2.0550000000e+002	 1.04038e-002
2090	 2.0556250000e+002	 6.10705e-002
2091	 2.0562500000e+002	 7.42384e-002
2092	 2.0568750000e+002	 8.67653e-002
2093	 2.0575000000e+002	 9.12127e-002
2094	 2.0581250000e+002	 5.56833e-002
2095	 2.0587500000e+002	 4.65303e-002
2096	 2.0593750000e+002	 8.36886e-002
2097	 2.0600000000e+002	 9.25021e-002
2098	 2.0606250000e+002	 6.92408e-002
2099	 2.0612500000e+002	 6.22168e-002
2100	 2.0618750000e+002	 8.92590e-002
2101	 2.0625000000e+002	 1.10688e-001
2102	 2.0631250000e+002	 1.11105e-001
2103	 2.0637500000e+002	 9.85882e-002
2104	 2.0643750000e+002	 3.88821e-002
2105	 2.0650000000e+002	 9.97436e-002
2106	 2.0656250000e+002	 5.65870e-002
2107	 2.0662500000e+002	 5.71773e-002
2108	 2.0668750000e+002	 2.34427e-001
2109	 2.0675000000e+002	 1.80929e-001
2110	 2.0681250000e+002	 1.65683e-001
2111	 2.0687500000e+002	 1.71868e-001
2112	 2.0693750000e+002	 7.68010e-002
2113	 2.0700000000e+002	 1.32076e-001
2114	 2.0706250000e+002	 2.23133e-001
2115	 2.0712500000e+002	 7.89718e-002
2116	 2.0718750000e+002	 3.26371e-002
2117	 2.0725000000e+002	 4.75424e-002
2118	 2.0731250000e+002	 1.53130e-001
2119	 2.0737500000e+002	 2.08616e-001
2120	 2.0743750000e+002	 8.23537e-002
2121	 2.0750000000e+002	 5.70252e-002
2122	 2.0756250000e+002	 1.55578e-001
2123	 2.0762500000e+002	 1.27617e-001
2124	 2.0768750000e+002	 2.86300e-002
2125	 2.0775000000e+002	 2.43270e-002
2126	 2.0781250000e+002	 9.60563e-002
2127	 2.0787500000e+002	 2.75466e-001
2128	 2.0793750000e+002	 3.14063e-001
2129	 2.0800000000e+002	 3.21762e-001
2130	 2.0806250000e+002	 1.52680e-001
2131	 2.0812500000e+002	 5.22444e-002
2132	 2.0818750000e+002	 1.41292e-001
2133	 2.0825000000e+002	 1.38883e-001
2134	 2.0831250000e+002	 8.12871e-002
2135	 2.0837500000e+002	 6.03320e-002
2136	 2.0843750000e+002	 8.34605e-002
2137	 2.0850000000e+002	 1.72871e-001
2138	 2.0856250000e+002	 2.50102e-001
2139	 2.0862500000e+002	 1.83697e-001
2140	 2.0868750000e+002	 2.42326e-001
2141	 2.0875000000e+002	 2.53250e-001
2142	 2.0881250000e+002	 1.97174e-001
2143	 2.0887500000e+002	 1.94433e-001
2144	 2.0893750000e+002	 1.53224e-001
2145	 2.0900000000e+002	 6.14080e-002
2146	 2.0906250000e+002	 4.28684e-002
2147	 2.0912500000e+002	 2.55304e-001
2148	 2.0918750000e+002	 6.69535e-001
2149	 2.0925000000e+002	 5.37811e-001
2150	 2.0931250000e+002	 1.01138e-001
2151	 2.0937500000e+002	 1.83592e-001
2152	 2.0943750000e+002	 1.92290e-001
2153	 2.0950000000e+002	 1.42482e-001
2154	 2.0956250000e+002	 2.35963e-001
2155	 2.0962500000e+002	 1.70807e-001
2156	 2.0968750000e+002	 2.73130e-001
2157	 2.0975000000e+002	 1.79860e-001
2158	 2.0981250000e+002	 2.51440e-002
2159	 2.0987500000e+002	 2.53910e-002
2160	 2.0993750000e+002	 1.08550e-001
2161	 2.1000000000e+002	 2.91279e-001
2162	 2.1006250000e+002	 2.20478e-001
2163	 2.1012500000e+002	 6.04711e-002
2164	 2.1018750000e+002	 8.09345e-002
2165	 2.1025000000e+002	 2.02455e-001
2166	 2.1031250000e+002	 3.52152e-001
2167	 2.1037500000e+002	 3.40976e-001
2168	 2.1043750000e+002	 1.43630e-001
2169	 2.1050000000e+002	 2.29346e-001
2170	 2.1056250000e+002	 4.34013e-001
2171	 2.1062500000e+002	 1.68568e-001
2172	 2.1068750000e+002	 4.06712e-001
2173	 2.1075000000e+002	 4.89229e-001
2174	 2.1081250000e+002	 1.39417e-001
2175	 2.1087500000e+002	 4.67005e-001
2176	 2.1093750000e+002	 9.35606e-001
2177	 2.1100000000e+002	 6.57037e-001
2178	 2.1106250000e+002	 2.57016e-001
2179	 2.1112500000e+002	 1.58098e-001
2180	 2.1118750000e+002	 2.82094e-001
2181	 2.1125000000e+002	 2.75539e-001
2182	 2.1131250000e+002	 2.15335e-001
2183	 2.1137500000e+002	 3.80155e-001
2184	 2.1143750000e+002	 7.22956e-001
2185	 2.1150000000e+002	 5.73043e-001
2186	 2.1156250000e+002	 9.05358e-001
2187	 2.1162500000e+002	 9.46262e-001
2188	 2.1168750000e+002	 9.09062e-001
2189	 2.1175000000e+002	 5.80598e-001
2190	 2.1181250000e+002	 8.27990e-001
2191	 2.1187500000e+002	 7.48076e-001
2192	 2.1193750000e+002	 3.44645e-001
2193	 2.1200000000e+002	 3.01269e-001
2194	 2.1206250000e+002	 5.79303e-001
2195	 2.1212500000e+002	 5.05945e-001
2196	 2.1218750000e+002	 2.23433e-001
2197	 2.1225000000e+002	 2.02715e-001
2198	 2.1231250000e+002	 4.02302e-001
2199	 2.1237500000e+002	 5.94409e-001
2200	 2.1243750000e+002	 4.43205e-001
2201	 2.1250000000e+002	 5.18820e-001
2202	 2.1256250000e+002	 6.26767e-001
2203	 2.1262500000e+002	 8.57608e-001
2204	 2.1268750000e+002	 1.23035e+000
2205	 2.1275000000e+002	 3.77992e-001
2206	 2.1281250000e+002	 2.85677e-001
2207	 2.1287500000e+002	 5.81890e-001
2208	 2.1293750000e+002	 3.85373e-001
2209	 2.1300000000e+002	 1.06879e+000
2210	 2.1306250000e+002	 1.44728e+000
2211	 2.1312500000e+002	 4.73879e-001
2212	 2.1318750000e+002	 5.09531e-001
2213	 2.1325000000e+002	 4.09147e-001
2214	 2.1331250000e+002	 1.09580e+000
2215	 2.1337500000e+002	 1.38713e+000
2216	 2.1343750000e+002	 1.41718e+000
2217	 2.1350000000e+002	 1.33237e+000
2218	 2.1356250000e+002	 1.23383e+000
2219	 2.1362500000e+002	 1.97511e+000
2220	 2.1368750000e+002	 1.07335e+000
2221	 2.1375000000e+002	 6.46796e-001
2222	 2.1381250000e+002	 1.18227e+000
2223	 2.1387500000e+002	 1.29861e+000
2224	 2.1393750000e+002	 8.77966e-001
2225	 2.1400000000e+002	 4.87741e-001
2226	 2.1406250000e+002	 8.07657e-001
2227	 2.1412500000e+002	 1.22628e+000
2228	 2.1418750000e+002	 1.03260e+000
2229	 2.1425000000e+002	 2.64321e+000
2230	 2.1431250000e+002	 2.21118e+000
2231	 2.1437500000e+002	 9.68118e-001
2232	 2.1443750000e+002	 1.21961e+000
2233	 2.1450000000e+002	 9.13248e-001
2234	 2.1456250000e+002	 3.84313e-001
2235	 2.1462500000e+002	 1.24149e+000
2236	 2.1468750000e+002	 1.98739e+000
2237	 2.1475000000e+002	 4.68625e-001
2238	 2.1481250000e+002	 2.02555e-001
2239	 2.1487500000e+002	 3.04922e-001
2240	 2.1493750000e+002	 1.41598e+000
2241	 2.1500000000e+002	 1.20821e+000
2242	 2.1506250000e+002	 5.58628e-001
2243	 2.1512500000e+002	 4.69730e-001
2244	 2.1518750000e+002	 8.11991e-001
2245	 2.1525000000e+002	 6.47137e-001
2246	 2.1531250000e+002	 1.04417e+000
2247	 2.1537500000e+002	 7.64089e-001
2248	 2.1543750000e+002	 8.11071e-001
2249	 2.1550000000e+002	 3.30757e-001
2250	 2.1556250000e+002	 2.37497e-001
2251	 2.1562500000e+002	 5.41347e-001
2252	 2.1568750000e+002	 6.93360e-001
2253	 2.1575000000e+002	 4.82029e-001
2254	 2.1581250000e+002	 2.27916e-001
2255	 2.1587500000e+002	 6.87491e-001
2256	 2.1593750000e+002	 5.08427e-001
2257	 2.1600000000e+002	 6.58439e-001
2258	 2.1606250000e+002	 9.42707e-001
2259	 2.1612500000e+002	 8.52777e-001
2260	 2.1618750000e+002	 3.46493e-001
2261	 2.1625000000e+002	 2.52245e-001
2262	 2.1631250000e+002	 3.29231e-001
2263	 2.1637500000e+002	 1.11840e+000
2264	 2.1643750000e+002	 1.35968e+000
2265	 2.1650000000e+002	 5.16979e-001
2266	 2.1656250000e+002	 3.29564e-001
2267	 2.1662500000e+002	 2.55649e-001
2268	 2.1668750000e+002	 1.15016e-001
2269	 2.1675000000e+002	 2.67519e-001
2270	 2.1681250000e+002	 6.01090e-001
2271	 2.1687500000e+002	 6.56994e-001
2272	 2.1693750000e+002	 6.77290e-001
2273	 2.1700000000e+002	 1.03798e+000
2274	 2.1706250000e+002	 1.11060e+000
2275	 2.1712500000e+002	 2.73181e-001
2276	 2.1718750000e+002	 7.21594e-002
2277	 2.1725000000e+002	 2.98288e-001
2278	 2.1731250000e+002	 5.12829e-001
2279	 2.1737500000e+002	 3.46883e-001
2280	 2.1743750000e+002	 5.73353e-001
2281	 2.1750000000e+002	 5.61352e-001
2282	 2.1756250000e+002	 3.18509e-001
2283	 2.1762500000e+002	 3.96549e-001
2284	 2.1768750000e+002	 1.62905e-001
2285	 2.1775000000e+002	 3.31269e-001
2286	 2.1781250000e+002	 3.46999e-001
2287	 2.1787500000e+002	 6.24308e-002
2288	 2.1793750000e+002	 3.05256e-001
2289	 2.1800000000e+002	 5.01947e-001
2290	 2.1806250000e+002	 2.30208e-001
2291	 2.1812500000e+002	 2.70946e-001
2292	 2.1818750000e+002	 2.21412e-001
2293	 2.1825000000e+002	 3.27496e-001
2294	 2.1831250000e+002	 3.76537e-001
2295	 2.1837500000e+002	 4.51424e-001
2296	 2.1843750000e+002	 2.40723e-001
2297	 2.1850000000e+002	 2.06141e-001
2298	 2.1856250000e+002	 8.09377e-002
2299	 2.1862500000e+002	 7.91355e-002
2300	 2.1868750000e+002	 2.03485e-001
2301	 2.1875000000e+002	 2.52141e-001
2302	 2.1881250000e+002	 2.10357e-001
2303	 2.1887500000e+002	 1.09387e-001
2304	 2.1893750000e+002	 2.75078e-001
2305	 2.1900000000e+002	 3.47337e-001
2306	 2.1906250000e+002	 3.15663e-001
2307	 2.1912500000e+002	 1.78224e-001
2308	 2.1918750000e+002	 2.32602e-001
2309	 2.1925000000e+002	 4.11101e-001
2310	 2.1931250000e+002	 2.11203e-001
2311	 2.1937500000e+002	 1.71673e-001
2312	 2.1943750000e+002	 1.66316e-001
2313	 2.1950000000e+002	 1.34351e-001
2314	 2.1956250000e+002	 1.71705e-001
2315	 2.1962500000e+002	 2.16834e-001
2316	 2.1968750000e+002	 2.41327e-001
2317	 2.1975000000e+002	 1.01412e-001
2318	 2.1981250000e+002	 1.31358e-001
2319	 2.1987500000e+002	 8.11155e-002
2320	 2.1993750000e+002	 9.97443e-002
2321	 2.2000000000e+002	 1.35421e-001
2322	 2.2006250000e+002	 1.17529e-001
2323	 2.2012500000e+002	 1.98277e-001
2324	 2.2018750000e+002	 2.13843e-001
2325	 2.2025000000e+002	 9.10598e-002
2326	 2.2031250000e+002	 1.29763e-001
2327	 2.2037500000e+002	 1.58446e-001
2328	 2.2043750000e+002	 2.74382e-001
2329	 2.2050000000e+002	 1.46217e-001
2330	 2.2056250000e+002	 1.02016e-001
2331	 2.2062500000e+002	 1.15376e-001
2332	 2.2068750000e+002	 1.67881e-001
2333	 2.2075000000e+002	 1.90675e-001
2334	 2.2081250000e+002	 2.33586e-001
2335	 2.2087500000e+002	 2.82145e-001
2336	 2.2093750000e+002	 2.03588e-001
2337	 2.2100000000e+002	 1.47699e-001
2338	 2.2106250000e+002	 2.92937e-001
2339	 2.2112500000e+002	 1.62785e-001
2340	 2.2118750000e+002	 5.17107e-002
2341	 2.2125000000e+002	 6.41907e-002
2342	 2.2131250000e+002	 1.15771e-001
2343	 2.2137500000e+002	 7.74113e-002
2344	 2.2143750000e+002	 9.51289e-002
2345	 2.2150000000e+002	 9.12884e-002
2346	 2.2156250000e+002	 6.14690e-002
2347	 2.2162500000e+002	 4.92590e-002
2348	 2.2168750000e+002	 1.30762e-001
2349	 2.2175000000e+002	 5.02389e-002
2350	 2.2181250000e+002	 9.41419e-002
2351	 2.2187500000e+002	 1.06377e-001
2352	 2.2193750000e+002	 6.03314e-002
2353	 2.2200000000e+002	 6.27927e-002
2354	 2.2206250000e+002	 5.58261e-002
2355	 2.2212500000e+002	 1.37773e-001
2356	 2.2218750000e+002	 1.42551e-001
2357	 2.2225000000e+002	 3.28747e-002
2358	 2.2231250000e+002	 4.01653e-002
2359	 2.2237500000e+002	 6.72690e-002
2360	 2.2243750000e+002	 6.22872e-002
2361	 2.2250000000e+002	 6.96724e-002
2362	 2.2256250000e+002	 7.54653e-002
2363	 2.2262500000e+002	 7.42688e-002
2364	 2.2268750000e+002	 5.51950e-002
2365	 2.2275000000e+002	 5.23220e-002
2366	 2.2281250000e+002	 3.43947e-002
2367	 2.2287500000e+002	 6.23054e-002
2368	 2.2293750000e+002	 9.94773e-002
2369	 2.2300000000e+002	 4.47701e-002
2370	 2.2306250000e+002	 6.02486e-003
2371	 2.2312500000e+002	 4.19860e-002
2372	 2.2318750000e+002	 1.03886e-001
2373	 2.2325000000e+002	 8.65387e-002
2374	 2.2331250000e+002	 8.45874e-002
2375	 2.2337500000e+002	 1.18808e-001
2376	 2.2343750000e+002	 7.24883e-002
2377	 2.2350000000e+002	 1.46991e-001
2378	 2.2356250000e+002	 1.10361e-001
2379	 2.2362500000e+002	 7.16427e-002
2380	 2.2368750000e+002	 8.45043e-002
2381	 2.2375000000e+002	 7.07040e-002
2382	 2.2381250000e+002	 2.23315e-002
2383	 2.2387500000e+002	 4.16441e-002
2384	 2.2393750000e+002	 1.14647e-001
2385	 2.2400000000e+002	 9.46172e-002
2386	 2.2406250000e+002	 5.11133e-002
2387	 2.2412500000e+002	 5.13998e-002
2388	 2.2418750000e+002	 7.38242e-002
2389	 2.2425000000e+002	 3.66718e-002
2390	 2.2431250000e+002	 2.55349e-002
2391	 2.2437500000e+002	 3.32932e-002
2392	 2.2443750000e+002	 2.97104e-002
2393	 2.2450000000e+002	 5.35449e-002
2394	 2.2456250000e+002	 4.35842e-002
2395	 2.2462500000e+002	 6.70317e-002
2396	 2.2468750000e+002	 1.00808e-001
2397	 2.2475000000e+002	 7.43743e-002
2398	 2.2481250000e+002	 2.00144e-001
2399	 2.2487500000e+002	 1.47830e-001
2400	 2.2493750000e+002	 4.01316e-002
2401	 2.2500000000e+002	 1.88505e-002
2402	 2.2506250000e+002	 2.47014e-002
2403	 2.2512500000e+002	 5.36764e-002
2404	 2.2518750000e+002	 4.11661e-002
2405	 2.2525000000e+002	 1.20120e-001
2406	 2.2531250000e+002	 8.10625e-002
2407	 2.2537500000e+002	 1.81628e-002
2408	 2.2543750000e+002	 1.93458e-002
2409	 2.2550000000e+002	 3.93226e-002
2410	 2.2556250000e+002	 6.09558e-002
2411	 2.2562500000e+002	 5.82110e-002
2412	 2.2568750000e+002	 9.23099e-002
2413	 2.2575000000e+002	 9.80398e-002
2414	 2.2581250000e+002	 7.29673e-002
2415	 2.2587500000e+002	 5.79751e-002
2416	 2.2593750000e+002	 8.62786e-002
2417	 2.2600000000e+002	 3.78715e-002
2418	 2.2606250000e+002	 5.88662e-002
2419	 2.2612500000e+002	 6.64658e-002
2420	 2.2618750000e+002	 4.17046e-002
2421	 2.2625000000e+002	 4.25316e-002
2422	 2.2631250000e+002	 6.20466e-002
2423	 2.2637500000e+002	 5.14888e-002
2424	 2.2643750000e+002	 5.70891e-002
2425	 2.2650000000e+002	 2.42853e-002
2426	 2.2656250000e+002	 6.81866e-002
2427	 2.2662500000e+002	 4.97331e-002
2428	 2.2668750000e+002	 9.40328e-003
2429	 2.2675000000e+002	 6.38061e-003
2430	 2.2681250000e+002	 1.64027e-002
2431	 2.2687500000e+002	 3.26913e-002
2432	 2.2693750000e+002	 5.62790e-002
2433	 2.2700000000e+002	 4.01576e-002
2434	 2.2706250000e+002	 2.84850e-002
2435	 2.2712500000e+002	 1.72637e-002
2436	 2.2718750000e+002	 3.51569e-002
2437	 2.2725000000e+002	 2.56700e-002
2438	 2.2731250000e+002	 2.00004e-002
2439	 2.2737500000e+002	 2.56498e-002
2440	 2.2743750000e+002	 2.14089e-002
2441	 2.2750000000e+002	 1.51770e-002
2442	 2.2756250000e+002	 2.79546e-002
2443	 2.2762500000e+002	 2.80656e-002
2444	 2.2768750000e+002	 9.83517e-002
2445	 2.2775000000e+002	 6.61900e-002
2446	 2.2781250000e+002	 3.69579e-002
2447	 2.2787500000e+002	 7.15279e-002
2448	 2.2793750000e+002	 9.22574e-002
2449	 2.2800000000e+002	 6.83133e-002
2450	 2.2806250000e+002	 3.25068e-002
2451	 2.2812500000e+002	 3.61544e-002
2452	 2.2818750000e+002	 5.87413e-002
2453	 2.2825000000e+002	 2.02205e-002
2454	 2.2831250000e+002	 3.35836e-002
2455	 2.2837500000e+002	 3.76780e-002
2456	 2.2843750000e+002	 5.27042e-002
2457	 2.2850000000e+002	 3.24083e-002
2458	 2.2856250000e+002	 1.14540e-002
2459	 2.2862500000e+002	 1.57756e-002
2460	 2.2868750000e+002	 1.33654e-002
2461	 2.2875000000e+002	 2.63464e-002
2462	 2.2881250000e+002	 3.18802e-002
2463	 2.2887500000e+002	 5.11806e-002
2464	 2.2893750000e+002	 4.43085e-002
2465	 2.2900000000e+002	 2.23601e-002
2466	 2.2906250000e+002	 1.70083e-002
2467	 2.2912500000e+002	 2.12446e-002
2468	 2.2918750000e+002	 2.20815e-002
2469	 2.2925000000e+002	 2.44433e-002
2470	 2.2931250000e+002	 2.00674e-002
2471	 2.2937500000e+002	 1.12894e-002
2472	 2.2943750000e+002	 1.67267e-002
2473	 2.2950000000e+002	 1.21491e-002
2474	 2.2956250000e+002	 1.62463e-002
2475	 2.2962500000e+002	 3.05181e-002
2476	 2.2968750000e+002	 1.90700e-002
2477	 2.2975000000e+002	 1.16911e-002
2478	 2.2981250000e+002	 1.25607e-002
2479	 2.2987500000e+002	 1.97455e-002
2480	 2.2993750000e+002	 4.58985e-002
2481	 2.3000000000e+002	 3.23183e-002
2482	 2.3006250000e+002	 3.56476e-002
2483	 2.3012500000e+002	 2.77219e-002
2484	 2.3018750000e+002	 7.08588e-002
2485	 2.3025000000e+002	 5.10488e-002
2486	 2.3031250000e+002	 2.13460e-002
2487	 2.3037500000e+002	 8.35670e-003
2488	 2.3043750000e+002	 2.03297e-002
2489	 2.3050000000e+002	 1.15079e-002
2490	 2.3056250000e+002	 6.87777e-003
2491	 2.3062500000e+002	 1.08967e-002
2492	 2.3068750000e+002	 1.88983e-002
2493	 2.3075000000e+002	 1.22030e-002
2494	 2.3081250000e+002	 9.47702e-003
2495	 2.3087500000e+002	 6.49814e-003
2496	 2.3093750000e+002	 7.72476e-003
2497	 2.3100000000e+002	 1.53222e-002
2498	 2.3106250000e+002	 2.12978e-002
2499	 2.3112500000e+002	 2.27822e-002
2500	 2.3118750000e+002	 1.46065e-002
2501	 2.3125000000e+002	 1.46791e-002
2502	 2.3131250000e+002	 1.29397e-002
2503	 2.3137500000e+002	 1.93941e-002
2504	 2.3143750000e+002	 3.46530e-002
2505	 2.3150000000e+002	 4.64958e-002
2506	 2.3156250000e+002	 2.86427e-002
2507	 2.3162500000e+002	 2.50878e-002
2508	 2.3168750000e+002	 6.08909e-002
2509	 2.3175000000e+002	 5.11092e-002
2510	 2.3181250000e+002	 1.45785e-002
2511	 2.3187500000e+002	 2.51760e-002
2512	 2.3193750000e+002	 2.19098e-002
2513	 2.3200000000e+002	 5.95259e-003
2514	 2.3206250000e+002	 9.08630e-003
2515	 2.3212500000e+002	 1.16236e-002
2516	 2.3218750000e+002	 2.01519e-002
2517	 2.3225000000e+002	 5.70127e-002
2518	 2.3231250000e+002	 5.50429e-002
2519	 2.3237500000e+002	 3.45616e-002
2520	 2.3243750000e+002	 2.38220e-002
2521	 2.3250000000e+002	 2.00501e-002
2522	 2.3256250000e+002	 2.06266e-002
2523	 2.3262500000e+002	 1.55575e-002
2524	 2.3268750000e+002	 1.85242e-002
2525	 2.3275000000e+002	 1.10832e-002
2526	 2.3281250000e+002	 7.01750e-003
2527	 2.3287500000e+002	 1.21371e-002
2528	 2.3293750000e+002	 1.98398e-002
2529	 2.3300000000e+002	 1.69172e-002
2530	 2.3306250000e+002	 7.04049e-003
2531	 2.3312500000e+002	 9.36809e-003
2532	 2.3318750000e+002	 1.32366e-002
2533	 2.3325000000e+002	 1.34219e-002
2534	 2.3331250000e+002	 2.44228e-002
2535	 2.3337500000e+002	 8.56525e-003
2536	 2.3343750000e+002	 2.06321e-002
2537	 2.3350000000e+002	 6.08251e-002
2538	 2.3356250000e+002	 4.05386e-002
2539	 2.3362500000e+002	 1.17898e-002
2540	 2.3368750000e+002	 7.58482e-003
2541	 2.3375000000e+002	 1.40285e-002
2542	 2.3381250000e+002	 2.28328e-002
2543	 2.3387500000e+002	 1.91012e-002
2544	 2.3393750000e+002	 1.37837e-002
2545	 2.3400000000e+002	 2.03926e-002
2546	 2.3406250000e+002	 1.54140e-002
2547	 2.3412500000e+002	 1.36617e-002
2548	 2.3418750000e+002	 1.42320e-002
2549	 2.3425000000e+002	 1.95688e-002
2550	 2.3431250000e+002	 1.00421e-002
2551	 2.3437500000e+002	 1.34589e-002
2552	 2.3443750000e+002	 2.23291e-002
2553	 2.3450000000e+002	 2.64650e-002
2554	 2.3456250000e+002	 1.85770e-002
2555	 2.3462500000e+002	 3.05642e-002
2556	 2.3468750000e+002	 2.48924e-002
2557	 2.3475000000e+002	 1.30735e-002
2558	 2.3481250000e+002	 1.89479e-002
2559	 2.3487500000e+002	 1.67287e-002
2560	 2.3493750000e+002	 4.30001e-002
2561	 2.3500000000e+002	 1.73560e-002
2562	 2.3506250000e+002	 1.44781e-002
2563	 2.3512500000e+002	 1.75115e-002
2564	 2.3518750000e+002	 1.17588e-002
2565	 2.3525000000e+002	 1.40231e-002
2566	 2.3531250000e+002	 2.17454e-002
2567	 2.3537500000e+002	 1.65738e-002
2568	 2.3543750000e+002	 1.71437e-002
2569	 2.3550000000e+002	 2.72453e-002
2570	 2.3556250000e+002	 1.77621e-002
2571	 2.3562500000e+002	 1.68602e-002
2572	 2.3568750000e+002	 9.63185e-003
2573	 2.3575000000e+002	 2.36698e-002
2574	 2.3581250000e+002	 5.24208e-002
2575	 2.3587500000e+002	 3.78387e-002
2576	 2.3593750000e+002	 1.41301e-002
2577	 2.3600000000e+002	 6.74070e-003
2578	 2.3606250000e+002	 1.02020e-002
2579	 2.3612500000e+002	 1.17488e-002
2580	 2.3618750000e+002	 1.67216e-002
2581	 2.3625000000e+002	 1.47813e-002
2582	 2.3631250000e+002	 8.50420e-003
2583	 2.3637500000e+002	 2.19522e-002
2584	 2.3643750000e+002	 3.45452e-002
2585	 2.3650000000e+002	 2.17063e-002
2586	 2.3656250000e+002	 2.80719e-002
2587	 2.3662500000e+002	 1.28879e-002
2588	 2.3668750000e+002	 1.39060e-002
2589	 2.3675000000e+002	 1.80639e-002
2590	 2.3681250000e+002	 1.21444e-002
2591	 2.3687500000e+002	 7.73100e-003
2592	 2.3693750000e+002	 2.03669e-002
2593	 2.3700000000e+002	 3.75428e-002
2594	 2.3706250000e+002	 2.84723e-002
2595	 2.3712500000e+002	 1.01966e-002
2596	 2.3718750000e+002	 2.04352e-002
2597	 2.3725000000e+002	 1.87601e-002
2598	 2.3731250000e+002	 7.69858e-003
2599	 2.3737500000e+002	 2.29466e-002
2600	 2.3743750000e+002	 1.77467e-002
2601	 2.3750000000e+002	 5.13005e-003
2602	 2.3756250000e+002	 5.99111e-003
2603	 2.3762500000e+002	 1.57222e-002
2604	 2.3768750000e+002	 3.23219e-002
2605	 2.3775000000e+002	 3.14259e-002
2606	 2.3781250000e+002	 3.90779e-002
2607	 2.3787500000e+002	 5.93737e-002
2608	 2.3793750000e+002	 2.14437e-002
2609	 2.3800000000e+002	 8.69965e-003
2610	 2.3806250000e+002	 3.85229e-003
2611	 2.3812500000e+002	 1.33607e-002
2612	 2.3818750000e+002	 2.60473e-002
2613	 2.3825000000e+002	 2.81244e-002
2614	 2.3831250000e+002	 1.43474e-002
2615	 2.3837500000e+002	 1.22102e-002
2616	 2.3843750000e+002	 6.57623e-003
2617	 2.3850000000e+002	 6.22829e-003
2618	 2.3856250000e+002	 7.49277e-003
2619	 2.3862500000e+002	 1.49292e-002
2620	 2.3868750000e+002	 2.40970e-002
2621	 2.3875000000e+002	 2.79841e-002
2622	 2.3881250000e+002	 3.28835e-002
2623	 2.3887500000e+002	 1.21374e-002
2624	 2.3893750000e+002	 2.70883e-002
2625	 2.3900000000e+002	 2.27650e-002
2626	 2.3906250000e+002	 2.55567e-002
2627	 2.3912500000e+002	 1.55488e-002
2628	 2.3918750000e+002	 1.22762e-002
2629	 2.3925000000e+002	 1.12015e-002
2630	 2.3931250000e+002	 5.22412e-003
2631	 2.3937500000e+002	 1.40188e-002
2632	 2.3943750000e+002	 2.99572e-002
2633	 2.3950000000e+002	 2.57013e-002
2634	 2.3956250000e+002	 1.42078e-002
2635	 2.3962500000e+002	 1.12597e-002
2636	 2.3968750000e+002	 9.03976e-003
2637	 2.3975000000e+002	 9.93650e-003
2638	 2.3981250000e+002	 3.14498e-002
2639	 2.3987500000e+002	 2.99386e-002
2640	 2.3993750000e+002	 4.72942e-002
2641	 2.4000000000e+002	 4.53708e-002
2642	 2.4006250000e+002	 6.51503e-003
2643	 2.4012500000e+002	 2.50464e-002
2644	 2.4018750000e+002	 2.93707e-002
2645	 2.4025000000e+002	 8.67647e-003
2646	 2.4031250000e+002	 5.89030e-003
2647	 2.4037500000e+002	 7.59393e-003
2648	 2.4043750000e+002	 9.94253e-003
2649	 2.4050000000e+002	 1.11564e-002
2650	 2.4056250000e+002	 1.74662e-002
2651	 2.4062500000e+002	 1.24871e-002
2652	 2.4068750000e+002	 8.38328e-003
2653	 2.4075000000e+002	 2.40814e-002
2654	 2.4081250000e+002	 2.50615e-002
2655	 2.4087500000e+002	 3.35227e-002
2656	 2.4093750000e+002	 3.78248e-002
2657	 2.4100000000e+002	 2.52600e-002
2658	 2.4106250000e+002	 2.53068e-002
2659	 2.4112500000e+002	 1.08550e-002
2660	 2.4118750000e+002	 1.15681e-002
2661	 2.4125000000e+002	 1.00349e-002
2662	 2.4131250000e+002	 1.62443e-002
2663	 2.4137500000e+002	 2.64714e-002
2664	 2.4143750000e+002	 3.44845e-002
2665	 2.4150000000e+002	 4.25660e-002
2666	 2.4156250000e+002	 1.84115e-002
2667	 2.4162500000e+002	 6.65904e-003
2668	 2.4168750000e+002	 1.94381e-002
2669	 2.4175000000e+002	 2.86904e-002
2670	 2.4181250000e+002	 1.29115e-002
2671	 2.4187500000e+002	 2.82707e-002
2672	 2.4193750000e+002	 2.52008e-002
2673	 2.4200000000e+002	 1.20205e-002
2674	 2.4206250000e+002	 1.84897e-002
2675	 2.4212500000e+002	 1.90076e-002
2676	 2.4218750000e+002	 1.81198e-002
2677	 2.4225000000e+002	 8.47189e-003
2678	 2.4231250000e+002	 5.63774e-003
2679	 2.4237500000e+002	 2.06801e-002
2680	 2.4243750000e+002	 3.00634e-002
2681	 2.4250000000e+002	 1.08227e-002
2682	 2.4256250000e+002	 1.29553e-002
2683	 2.4262500000e+002	 1.56886e-002
2684	 2.4268750000e+002	 1.04838e-002
2685	 2.4275000000e+002	 7.58076e-003
2686	 2.4281250000e+002	 7.67522e-003
2687	 2.4287500000e+002	 6.77064e-003
2688	 2.4293750000e+002	 9.92947e-003
2689	 2.4300000000e+002	 1.78176e-002
2690	 2.4306250000e+002	 1.87350e-002
2691	 2.4312500000e+002	 1.95456e-002
2692	 2.4318750000e+002	 1.62590e-002
2693	 2.4325000000e+002	 1.32242e-002
2694	 2.4331250000e+002	 1.06537e-002
2695	 2.4337500000e+002	 1.81358e-002
2696	 2.4343750000e+002	 3.17423e-002
2697	 2.4350000000e+002	 1.63324e-002
2698	 2.4356250000e+002	 2.08699e-002
2699	 2.4362500000e+002	 1.88079e-002
2700	 2.4368750000e+002	 2.44772e-002
2701	 2.4375000000e+002	 1.78134e-002
2702	 2.4381250000e+002	 9.98818e-003
2703	 2.4387500000e+002	 1.65263e-002
2704	 2.4393750000e+002	 1.55353e-002
2705	 2.4400000000e+002	 6.67682e-003
2706	 2.4406250000e+002	 1.05179e-002
2707	 2.4412500000e+002	 2.34060e-002
2708	 2.4418750000e+002	 1.56903e-002
2709	 2.4425000000e+002	 1.10373e-002
2710	 2.4431250000e+002	 1.66319e-002
2711	 2.4437500000e+002	 2.55042e-002
2712	 2.4443750000e+002	 2.84097e-002
2713	 2.4450000000e+002	 1.38884e-002
2714	 2.4456250000e+002	 1.02571e-002
2715	 2.4462500000e+002	 9.84448e-003
2716	 2.4468750000e+002	 9.65170e-003
2717	 2.4475000000e+002	 7.75553e-003
2718	 2.4481250000e+002	 7.25745e-003
2719	 2.4487500000e+002	 1.80674e-002
2720	 2.4493750000e+002	 4.78488e-002
2721	 2.4500000000e+002	 3.56004e-002
2722	 2.4506250000e+002	 1.05746e-002
2723	 2.4512500000e+002	 1.51747e-002
2724	 2.4518750000e+002	 2.70053e-002
2725	 2.4525000000e+002	 1.12146e-002
2726	 2.4531250000e+002	 1.10376e-002
2727	 2.4537500000e+002	 1.51094e-002
2728	 2.4543750000e+002	 1.91464e-002
2729	 2.4550000000e+002	 3.97894e-002
2730	 2.4556250000e+002	 1.71967e-002
2731	 2.4562500000e+002	 1.06343e-002
2732	 2.4568750000e+002	 3.26626e-002
2733	 2.4575000000e+002	 4.59822e-002
2734	 2.4581250000e+002	 3.10926e-002
2735	 2.4587500000e+002	 2.37547e-002
2736	 2.4593750000e+002	 2.83802e-002
2737	 2.4600000000e+002	 1.37265e-002
2738	 2.4606250000e+002	 8.39342e-003
2739	 2.4612500000e+002	 1.09217e-002
2740	 2.4618750000e+002	 1.92797e-002
2741	 2.4625000000e+002	 2.58898e-002
2742	 2.4631250000e+002	 2.94886e-002
2743	 2.4637500000e+002	 2.76933e-002
2744	 2.4643750000e+002	 1.36894e-002
2745	 2.4650000000e+002	 6.90812e-003
2746	 2.4656250000e+002	 2.55709e-002
2747	 2.4662500000e+002	 4.08464e-002
2748	 2.4668750000e+002	 2.22161e-002
2749	 2.4675000000e+002	 3.23787e-002
2750	 2.4681250000e+002	 2.47734e-002
2751	 2.4687500000e+002	 4.02041e-002
2752	 2.4693750000e+002	 2.45363e-002
2753	 2.4700000000e+002	 3.08903e-002
2754	 2.4706250000e+002	 4.00875e-002
2755	 2.4712500000e+002	 2.28366e-002
2756	 2.4718750000e+002	 9.45164e-003
2757	 2.4725000000e+002	 1.17198e-002
2758	 2.4731250000e+002	 2.08331e-002
2759	 2.4737500000e+002	 2.43341e-002
2760	 2.4743750000e+002	 2.29153e-002
2761	 2.4750000000e+002	 1.39411e-002
2762	 2.4756250000e+002	 1.42267e-002
2763	 2.4762500000e+002	 2.20292e-002
2764	 2.4768750000e+002	 2.03671e-002
2765	 2.4775000000e+002	 1.79739e-002
2766	 2.4781250000e+002	 2.40611e-002
2767	 2.4787500000e+002	 2.16262e-002
2768	 2.4793750000e+002	 1.28482e-002
2769	 2.4800000000e+002	 1.11428e-002
2770	 2.4806250000e+002	 1.17257e-002
2771	 2.4812500000e+002	 1.30365e-002
2772	 2.4818750000e+002	 8.37675e-003
2773	 2.4825000000e+002	 8.63236e-003
2774	 2.4831250000e+002	 4.31124e-003
2775	 2.4837500000e+002	 1.01843e-002
2776	 2.4843750000e+002	 1.17031e-002
2777	 2.4850000000e+002	 7.93415e-003
2778	 2.4856250000e+002	 1.79122e-002
2779	 2.4862500000e+002	 1.59681e-002
2780	 2.4868750000e+002	 2.47651e-002
2781	 2.4875000000e+002	 3.40032e-002
2782	 2.4881250000e+002	 6.55033e-003
2783	 2.4887500000e+002	 8.53195e-003
2784	 2.4893750000e+002	 1.07380e-002
2785	 2.4900000000e+002	 1.56904e-002
2786	 2.4906250000e+002	 4.27207e-002
2787	 2.4912500000e+002	 3.90502e-002
2788	 2.4918750000e+002	 9.61415e-003
2789	 2.4925000000e+002	 6.15811e-003
2790	 2.4931250000e+002	 1.33634e-002
2791	 2.4937500000e+002	 1.89881e-002
2792	 2.4943750000e+002	 1.49069e-002
2793	 2.4950000000e+002	 2.18707e-002
2794	 2.4956250000e+002	 1.27228e-002
2795	 2.4962500000e+002	 7.27405e-003
2796	 2.4968750000e+002	 8.29193e-003
2797	 2.4975000000e+002	 1.66005e-002
2798	 2.4981250000e+002	 2.66202e-002
2799	 2.4987500000e+002	 1.70956e-002
2800	 2.4993750000e+002	 2.01468e-002
2801	 2.5000000000e+002	 3.35447e-002
2802	 2.5006250000e+002	 3.77711e-002
2803	 2.5012500000e+002	 1.80762e-002
2804	 2.5018750000e+002	 1.81798e-002
2805	 2.5025000000e+002	 1.14946e-002
2806	 2.5031250000e+002	 1.87299e-002
2807	 2.5037500000e+002	 2.12195e-002
2808	 2.5043750000e+002	 3.45403e-002
2809	 2.5050000000e+002	 1.98447e-002
2810	 2.5056250000e+002	 3.86438e-002
2811	 2.5062500000e+002	 2.17894e-002
2812	 2.5068750000e+002	 2.91143e-002
2813	 2.5075000000e+002	 2.61373e-002
2814	 2.5081250000e+002	 1.85462e-002
2815	 2.5087500000e+002	 1.40511e-002
2816	 2.5093750000e+002	 1.32153e-002
2817	 2.5100000000e+002	 1.16345e-002
2818	 2.5106250000e+002	 1.61696e-002
2819	 2.5112500000e+002	 1.39575e-002
2820	 2.5118750000e+002	 2.15747e-002
2821	 2.5125000000e+002	 1.74320e-002
2822	 2.5131250000e+002	 3.23224e-002
2823	 2.5137500000e+002	 4.57704e-002
2824	 2.5143750000e+002	 3.63661e-002
2825	 2.5150000000e+002	 3.74267e-002
2826	 2.5156250000e+002	 2.32071e-002
2827	 2.5162500000e+002	 1.52285e-002
2828	 2.5168750000e+002	 8.92994e-003
2829	 2.5175000000e+002	 1.41490e-002
2830	 2.5181250000e+002	 2.13377e-002
2831	 2.5187500000e+002	 1.57001e-002
2832	 2.5193750000e+002	 1.25277e-002
2833	 2.5200000000e+002	 8.20339e-003
2834	 2.5206250000e+002	 1.68052e-002
2835	 2.5212500000e+002	 2.85183e-002
2836	 2.5218750000e+002	 5.30631e-002
2837	 2.5225000000e+002	 3.62856e-002
2838	 2.5231250000e+002	 6.56163e-002
2839	 2.5237500000e+002	 3.03537e-002
2840	 2.5243750000e+002	 3.45683e-002
2841	 2.5250000000e+002	 2.42776e-002
2842	 2.5256250000e+002	 1.95184e-002
2843	 2.5262500000e+002	 2.46625e-002
2844	 2.5268750000e+002	 1.23523e-002
2845	 2.5275000000e+002	 1.55566e-002
2846	 2.5281250000e+002	 2.32635e-002
2847	 2.5287500000e+002	 3.22372e-002
2848	 2.5293750000e+002	 5.00547e-002
2849	 2.5300000000e+002	 3.23946e-002
2850	 2.5306250000e+002	 4.67242e-002
2851	 2.5312500000e+002	 4.03935e-002
2852	 2.5318750000e+002	 2.68131e-002
2853	 2.5325000000e+002	 2.13153e-002
2854	 2.5331250000e+002	 2.62934e-002
2855	 2.5337500000e+002	 7.31193e-003
2856	 2.5343750000e+002	 1.27353e-002
2857	 2.5350000000e+002	 2.07103e-002
2858	 2.5356250000e+002	 4.65754e-002
2859	 2.5362500000e+002	 4.28510e-002
2860	 2.5368750000e+002	 5.33602e-002
2861	 2.5375000000e+002	 4.72903e-002
2862	 2.5381250000e+002	 2.17435e-002
2863	 2.5387500000e+002	 6.67664e-003
2864	 2.5393750000e+002	 1.61171e-002
2865	 2.5400000000e+002	 2.22247e-002
2866	 2.5406250000e+002	 1.85007e-002
2867	 2.5412500000e+002	 1.15806e-002
2868	 2.5418750000e+002	 4.02837e-003
2869	 2.5425000000e+002	 6.11412e-003
2870	 2.5431250000e+002	 3.35305e-002
2871	 2.5437500000e+002	 3.84270e-002
2872	 2.5443750000e+002	 2.82470e-002
2873	 2.5450000000e+002	 4.01355e-002
2874	 2.5456250000e+002	 3.22503e-002
2875	 2.5462500000e+002	 2.61091e-002
2876	 2.5468750000e+002	 1.45144e-002
2877	 2.5475000000e+002	 2.67796e-002
2878	 2.5481250000e+002	 3.26844e-002
2879	 2.5487500000e+002	 2.96415e-002
2880	 2.5493750000e+002	 3.12762e-002
2881	 2.5500000000e+002	 1.64837e-002
2882	 2.5506250000e+002	 1.09351e-002
2883	 2.5512500000e+002	 5.21170e-002
2884	 2.5518750000e+002	 3.88602e-002
2885	 2.5525000000e+002	 8.10333e-003
2886	 2.5531250000e+002	 6.52565e-003
2887	 2.5537500000e+002	 1.37889e-002
2888	 2.5543750000e+002	 1.87539e-002
2889	 2.5550000000e+002	 3.53924e-002
2890	 2.5556250000e+002	 3.65742e-002
2891	 2.5562500000e+002	 2.14947e-002
2892	 2.5568750000e+002	 5.31646e-002
2893	 2.5575000000e+002	 7.26159e-002
2894	 2.5581250000e+002	 6.10245e-002
2895	 2.5587500000e+002	 6.45200e-002
2896	 2.5593750000e+002	 2.74400e-002
2897	 2.5600000000e+002	 5.77601e-003
2898	 2.5606250000e+002	 5.05839e-003
2899	 2.5612500000e+002	 9.81358e-003
2900	 2.5618750000e+002	 3.06962e-002
2901	 2.5625000000e+002	 4.03085e-002
2902	 2.5631250000e+002	 3.71867e-002
2903	 2.5637500000e+002	 2.95966e-002
2904	 2.5643750000e+002	 5.29479e-002
2905	 2.5650000000e+002	 2.62468e-002
2906	 2.5656250000e+002	 2.35706e-002
2907	 2.5662500000e+002	 4.99457e-002
2908	 2.5668750000e+002	 5.26540e-002
2909	 2.5675000000e+002	 3.28983e-002
2910	 2.5681250000e+002	 1.28829e-002
2911	 2.5687500000e+002	 1.32045e-002
2912	 2.5693750000e+002	 5.72164e-002
2913	 2.5700000000e+002	 5.21475e-002
2914	 2.5706250000e+002	 7.96045e-002
2915	 2.5712500000e+002	 1.24636e-001
2916	 2.5718750000e+002	 4.33822e-002
2917	 2.5725000000e+002	 3.60095e-002
2918	 2.5731250000e+002	 7.03275e-002
2919	 2.5737500000e+002	 6.02611e-002
2920	 2.5743750000e+002	 2.98639e-002
2921	 2.5750000000e+002	 1.34607e-002
2922	 2.5756250000e+002	 1.37444e-002
2923	 2.5762500000e+002	 1.22916e-002
2924	 2.5768750000e+002	 4.67165e-002
2925	 2.5775000000e+002	 9.00140e-002
2926	 2.5781250000e+002	 7.16205e-002
2927	 2.5787500000e+002	 7.66249e-002
2928	 2.5793750000e+002	 7.45190e-002
2929	 2.5800000000e+002	 4.21083e-002
2930	 2.5806250000e+002	 2.86961e-002
2931	 2.5812500000e+002	 3.76821e-002
2932	 2.5818750000e+002	 4.99187e-002
2933	 2.5825000000e+002	 7.31249e-002
2934	 2.5831250000e+002	 3.90103e-002
2935	 2.5837500000e+002	 4.64885e-002
2936	 2.5843750000e+002	 2.74621e-002
2937	 2.5850000000e+002	 9.26780e-002
2938	 2.5856250000e+002	 1.36204e-001
2939	 2.5862500000e+002	 2.25510e-001
2940	 2.5868750000e+002	 1.80927e-001
2941	 2.5875000000e+002	 6.83738e-002
2942	 2.5881250000e+002	 5.74657e-002
2943	 2.5887500000e+002	 1.12485e-001
2944	 2.5893750000e+002	 1.02238e-001
2945	 2.5900000000e+002	 5.02891e-002
2946	 2.5906250000e+002	 3.42605e-002
2947	 2.5912500000e+002	 1.13116e-001
2948	 2.5918750000e+002	 1.90302e-001
2949	 2.5925000000e+002	 1.79266e-001
2950	 2.5931250000e+002	 9.54795e-002
2951	 2.5937500000e+002	 9.26453e-002
2952	 2.5943750000e+002	 8.96077e-002
2953	 2.5950000000e+002	 1.12912e-001
2954	 2.5956250000e+002	 8.36093e-002
2955	 2.5962500000e+002	 4.11502e-002
2956	 2.5968750000e+002	 4.65633e-002
2957	 2.5975000000e+002	 1.09001e-001
2958	 2.5981250000e+002	 1.09178e-001
2959	 2.5987500000e+002	 1.97719e-001
2960	 2.5993750000e+002	 5.77966e-002
2961	 2.6000000000e+002	 6.95146e-002
2962	 2.6006250000e+002	 2.35569e-001
2963	 2.6012500000e+002	 1.91790e-001
2964	 2.6018750000e+002	 5.01375e-002
2965	 2.6025000000e+002	 5.53687e-002
2966	 2.6031250000e+002	 8.79479e-002
2967	 2.6037500000e+002	 1.24023e-001
2968	 2.6043750000e+002	 8.07058e-002
2969	 2.6050000000e+002	 3.48922e-002
2970	 2.6056250000e+002	 5.52280e-002
2971	 2.6062500000e+002	 1.36030e-001
2972	 2.6068750000e+002	 2.72658e-001
2973	 2.6075000000e+002	 2.70554e-001
2974	 2.6081250000e+002	 3.43395e-001
2975	 2.6087500000e+002	 1.89430e-001
2976	 2.6093750000e+002	 4.20715e-002
2977	 2.6100000000e+002	 5.46883e-002
2978	 2.6106250000e+002	 6.30314e-002
2979	 2.6112500000e+002	 2.46830e-002
2980	 2.6118750000e+002	 9.84171e-002
2981	 2.6125000000e+002	 3.74508e-001
2982	 2.6131250000e+002	 3.48489e-001
2983	 2.6137500000e+002	 7.89313e-002
2984	 2.6143750000e+002	 9.75009e-002
2985	 2.6150000000e+002	 1.56384e-001
2986	 2.6156250000e+002	 5.73304e-002
2987	 2.6162500000e+002	 4.63479e-002
2988	 2.6168750000e+002	 8.69876e-002
2989	 2.6175000000e+002	 1.76894e-001
2990	 2.6181250000e+002	 1.94142e-001
2991	 2.6187500000e+002	 2.01023e-001
2992	 2.6193750000e+002	 2.23026e-001
2993	 2.6200000000e+002	 1.21532e-001
2994	 2.6206250000e+002	 1.28274e-001
2995	 2.6212500000e+002	 2.20987e-001
2996	 2.6218750000e+002	 1.24516e-001
2997	 2.6225000000e+002	 1.56015e-001
2998	 2.6231250000e+002	 4.12064e-001
2999	 2.6237500000e+002	 1.18728e-001
3000	 2.6243750000e+002	 5.91839e-002
3001	 2.6250000000e+002	 2.05219e-001
3002	 2.6256250000e+002	 3.22659e-001
3003	 2.6262500000e+002	 1.53682e-001
3004	 2.6268750000e+002	 4.93608e-002
3005	 2.6275000000e+002	 1.99229e-001
3006	 2.6281250000e+002	 6.26190e-001
3007	 2.6287500000e+002	 4.11300e-001
3008	 2.6293750000e+002	 2.56065e-001
3009	 2.6300000000e+002	 2.18528e-001
3010	 2.6306250000e+002	 3.16983e-001
3011	 2.6312500000e+002	 6.91583e-001
3012	 2.6318750000e+002	 4.72725e-001
3013	 2.6325000000e+002	 2.37646e-001
3014	 2.6331250000e+002	 1.06661e-001
3015	 2.6337500000e+002	 9.58290e-002
3016	 2.6343750000e+002	 1.18529e-001
3017	 2.6350000000e+002	 1.50726e-001
3018	 2.6356250000e+002	 4.71968e-002
3019	 2.6362500000e+002	 9.94811e-002
3020	 2.6368750000e+002	 2.28660e-001
3021	 2.6375000000e+002	 1.44606e-001
3022	 2.6381250000e+002	 2.70705e-001
3023	 2.6387500000e+002	 7.17826e-001
3024	 2.6393750000e+002	 6.40964e-001
3025	 2.6400000000e+002	 7.78091e-001
3026	 2.6406250000e+002	 3.81694e-001
3027	 2.6412500000e+002	 4.08457e-001
3028	 2.6418750000e+002	 3.52258e-001
3029	 2.6425000000e+002	 4.45016e-001
3030	 2.6431250000e+002	 4.60156e-001
3031	 2.6437500000e+002	 1.24653e-001
3032	 2.6443750000e+002	 1.78424e-001
3033	 2.6450000000e+002	 2.12199e-001
3034	 2.6456250000e+002	 3.89394e-001
3035	 2.6462500000e+002	 3.69239e-001
3036	 2.6468750000e+002	 1.09631e-001
3037	 2.6475000000e+002	 2.56192e-001
3038	 2.6481250000e+002	 4.38697e-001
3039	 2.6487500000e+002	 1.01501e+000
3040	 2.6493750000e+002	 5.91764e-001
3041	 2.6500000000e+002	 2.79617e-001
3042	 2.6506250000e+002	 1.78737e-001
3043	 2.6512500000e+002	 2.35677e-001
3044	 2.6518750000e+002	 3.36707e-001
3045	 2.6525000000e+002	 4.00850e-001
3046	 2.6531250000e+002	 3.35528e-001
3047	 2.6537500000e+002	 3.02513e-001
3048	 2.6543750000e+002	 1.20082e-001
3049	 2.6550000000e+002	 4.45601e-002
3050	 2.6556250000e+002	 9.83168e-002
3051	 2.6562500000e+002	 3.60180e-001
3052	 2.6568750000e+002	 3.83659e-001
3053	 2.6575000000e+002	 5.04398e-001
3054	 2.6581250000e+002	 3.51485e-001
3055	 2.6587500000e+002	 1.79495e-001
3056	 2.6593750000e+002	 4.26328e-001
3057	 2.6600000000e+002	 7.80514e-001
3058	 2.6606250000e+002	 7.45574e-001
3059	 2.6612500000e+002	 1.05525e+000
3060	 2.6618750000e+002	 1.28681e+000
3061	 2.6625000000e+002	 8.53698e-001
3062	 2.6631250000e+002	 8.25324e-001
3063	 2.6637500000e+002	 9.60163e-001
3064	 2.6643750000e+002	 9.45072e-001
3065	 2.6650000000e+002	 5.51686e-001
3066	 2.6656250000e+002	 5.27932e-001
3067	 2.6662500000e+002	 5.79498e-001
3068	 2.6668750000e+002	 4.36620e-001
3069	 2.6675000000e+002	 6.37406e-001
3070	 2.6681250000e+002	 9.44255e-001
3071	 2.6687500000e+002	 5.39389e-001
3072	 2.6693750000e+002	 5.76600e-001
3073	 2.6700000000e+002	 9.38141e-001
3074	 2.6706250000e+002	 6.69738e-001
3075	 2.6712500000e+002	 6.09112e-001
3076	 2.6718750000e+002	 4.72217e-001
3077	 2.6725000000e+002	 4.20678e-001
3078	 2.6731250000e+002	 6.71637e-001
3079	 2.6737500000e+002	 8.53979e-001
3080	 2.6743750000e+002	 1.21630e+000
3081	 2.6750000000e+002	 6.83379e-001
3082	 2.6756250000e+002	 7.23493e-001
3083	 2.6762500000e+002	 6.26392e-001
3084	 2.6768750000e+002	 1.19565e+000
3085	 2.6775000000e+002	 9.12313e-001
3086	 2.6781250000e+002	 2.81963e-001
3087	 2.6787500000e+002	 3.67683e-001
3088	 2.6793750000e+002	 3.62209e-001
3089	 2.6800000000e+002	 4.23466e-001
3090	 2.6806250000e+002	 5.56824e-001
3091	 2.6812500000e+002	 5.48060e-001
3092	 2.6818750000e+002	 7.79417e-001
3093	 2.6825000000e+002	 8.65029e-001
3094	 2.6831250000e+002	 5.03616e-001
3095	 2.6837500000e+002	 9.44111e-001
3096	 2.6843750000e+002	 6.61659e-001
3097	 2.6850000000e+002	 3.94092e-001
3098	 2.6856250000e+002	 1.79380e-001
3099	 2.6862500000e+002	 7.23388e-001
3100	 2.6868750000e+002	 9.32986e-001
3101	 2.6875000000e+002	 4.84851e-001
3102	 2.6881250000e+002	 2.78587e-001
3103	 2.6887500000e+002	 2.66530e-001
3104	 2.6893750000e+002	 1.03547e-001
3105	 2.6900000000e+002	 1.14431e-001
3106	 2.6906250000e+002	 2.45172e-001
3107	 2.6912500000e+002	 1.48612e-001
3108	 2.6918750000e+002	 1.65167e-001
3109	 2.6925000000e+002	 2.19472e-001
3110	 2.6931250000e+002	 3.51440e-001
3111	 2.6937500000e+002	 3.60727e-001
3112	 2.6943750000e+002	 1.29390e-001
3113	 2.6950000000e+002	 6.90516e-002
3114	 2.6956250000e+002	 1.08034e-001
3115	 2.6962500000e+002	 1.40260e-001
3116	 2.6968750000e+002	 1.45584e-001
3117	 2.6975000000e+002	 1.11759e-001
3118	 2.6981250000e+002	 1.88734e-001
3119	 2.6987500000e+002	 2.51590e-001
3120	 2.6993750000e+002	 1.64009e-001
3121	 2.7000000000e+002	 2.98273e-001
3122	 2.7006250000e+002	 4.03603e-001
3123	 2.7012500000e+002	 2.42380e-001
3124	 2.7018750000e+002	 3.25128e-001
3125	 2.7025000000e+002	 2.99180e-001
3126	 2.7031250000e+002	 1.61225e-001
3127	 2.7037500000e+002	 1.68816e-001
3128	 2.7043750000e+002	 1.24223e-001
3129	 2.7050000000e+002	 8.97921e-002
3130	 2.7056250000e+002	 4.58873e-002
3131	 2.7062500000e+002	 7.45773e-002
3132	 2.7068750000e+002	 7.86616e-002
3133	 2.7075000000e+002	 7.57037e-002
3134	 2.7081250000e+002	 4.56094e-002
3135	 2.7087500000e+002	 1.02673e-001
3136	 2.7093750000e+002	 9.52218e-002
3137	 2.7100000000e+002	 2.31168e-001
3138	 2.7106250000e+002	 2.28910e-001
3139	 2.7112500000e+002	 2.57974e-001
3140	 2.7118750000e+002	 3.01482e-001
3141	 2.7125000000e+002	 1.72579e-001
3142	 2.7131250000e+002	 5.72076e-002
3143	 2.7137500000e+002	 1.58469e-001
3144	 2.7143750000e+002	 1.53047e-001
3145	 2.7150000000e+002	 7.89494e-002
3146	 2.7156250000e+002	 1.00055e-001
3147	 2.7162500000e+002	 1.65425e-001
3148	 2.7168750000e+002	 1.33889e-001
3149	 2.7175000000e+002	 1.52179e-001
3150	 2.7181250000e+002	 1.32803e-001
3151	 2.7187500000e+002	 2.76086e-001
3152	 2.7193750000e+002	 1.77065e-001
3153	 2.7200000000e+002	 9.86368e-002
3154	 2.7206250000e+002	 6.29897e-002
3155	 2.7212500000e+002	 4.61594e-002
3156	 2.7218750000e+002	 1.37329e-001
3157	 2.7225000000e+002	 1.44243e-001
3158	 2.7231250000e+002	 1.65106e-001
3159	 2.7237500000e+002	 2.77585e-001
3160	 2.7243750000e+002	 1.10728e-001
3161	 2.7250000000e+002	 9.09347e-002
3162	 2.7256250000e+002	 5.23460e-002
3163	 2.7262500000e+002	 3.59644e-002
3164	 2.7268750000e+002	 5.21004e-002
3165	 2.7275000000e+002	 6.58306e-002
3166	 2.7281250000e+002	 1.32983e-001
3167	 2.7287500000e+002	 1.21712e-001
3168	 2.7293750000e+002	 1.11464e-001
3169	 2.7300000000e+002	 2.44465e-001
3170	 2.7306250000e+002	 2.05328e-001
3171	 2.7312500000e+002	 8.75410e-002
3172	 2.7318750000e+002	 8.65680e-002
3173	 2.7325000000e+002	 9.45807e-002
3174	 2.7331250000e+002	 1.25136e-001
3175	 2.7337500000e+002	 5.75185e-002
3176	 2.7343750000e+002	 2.13593e-002
3177	 2.7350000000e+002	 7.39267e-002
3178	 2.7356250000e+002	 7.72768e-002
3179	 2.7362500000e+002	 9.80516e-002
3180	 2.7368750000e+002	 6.00127e-002
3181	 2.7375000000e+002	 1.54143e-001
3182	 2.7381250000e+002	 2.57219e-001
3183	 2.7387500000e+002	 1.78332e-001
3184	 2.7393750000e+002	 5.01737e-002
3185	 2.7400000000e+002	 1.20760e-002
3186	 2.7406250000e+002	 3.22366e-002
3187	 2.7412500000e+002	 3.62744e-002
3188	 2.7418750000e+002	 2.20368e-002
3189	 2.7425000000e+002	 5.70854e-002
3190	 2.7431250000e+002	 5.08252e-002
3191	 2.7437500000e+002	 6.17038e-002
3192	 2.7443750000e+002	 1.15086e-001
3193	 2.7450000000e+002	 6.97932e-002
3194	 2.7456250000e+002	 2.45852e-002
3195	 2.7462500000e+002	 8.90584e-002
3196	 2.7468750000e+002	 1.17670e-001
3197	 2.7475000000e+002	 7.16543e-002
3198	 2.7481250000e+002	 4.75176e-002
3199	 2.7487500000e+002	 5.89057e-002
3200	 2.7493750000e+002	 4.20475e-002
3201	 2.7500000000e+002	 3.24373e-002
TagsBegin:	 	 
OverLoad:	 	False
AverageNumber: []	 	 2.60000e+001
OverLoadRatio: []	 	 1.19209e-007
TagsEnd:	 	 
TagScalesBegin:	 	 
TagScalesEnd:	 	 
