Header Size:	 78	 
Pulse Version:	 42	 
Decimal Symbol:	.	 
Date Format:	dd-MM-yyyy	 
Time Format:	HH:mm:ss:mmm	 
Data Type:	Real	 
Slice:	False	 
Z-Axis type:	Linear	 
Z-Axis size:	1	 
Z-Axis unit:	 	 
Z-Axis first value:	 0.0000000000e+000	 
Z-Axis delta:	 1.0000000000e+000	 
X-Axis type:	Linear	 
X-Axis size:	3201	 
X-Axis unit:	Hz	 
X-Axis first value:	 7.5000000000e+001	 
X-Axis delta:	 6.2500000000e-002	 
	 	 
AmplitudeUnit:	Pa	 
Analyzer:	FFT_Spectrum_Averaging	 
AnalyzerName:	FFT Analyzer	 
	 	 
	 	 
Bipolar:	False	 
CenterFrequency:	 1.7500000000e+002	 
	 	 
	 	 
	 	 
	 	 
dBReference:	 4.0000000000e-010	 
	 	 
	 	 
	 	 
Domain:	1	 
Function:	Autospectrum	 
	 	 
InputRange:	 2.2376582278e+002	 
	 	 
	 	 
MultiBufferName:	Input	 
NBW:	 1.5000000000e+000	 
	 	 
OverlapFailed:	False	 
Overrun:	False	 
Power:	True	 
PowerUnit:	Pa²	 
	 	 
RecordLength:	 1.6000000000e+001	 
ReducedSize:	True	 
	 	 
	 	 
	 	 
	 	 
	 	 
SamplingRatio:	 1.2800000000e+000	 
Signal:	p_A_source	 
	 	 
SignalUnit:	Pa	 
	 	 
	 	 
	 	 
Title:	Autospectrum(p_A_source) - Input	 
Title1:	Working : Input : Input : FFT Analyzer	 
	 	 
	 	 
Weight:	0	 
ZoomOn:	True	 
	 	 
TemplateName:	Working	 
MeasurementName:	Input	 
MeasurementSlice:	False	 
	 	 
DeltaFrequency:	 6.2500000000e-002	 
	 	 
EnvelopeOn:	False	 
	 	 
	 	 
	 	 
Z-index:	 	1
Date:	 	05-03-2025
Time:	 	12:24:48:943
Relative time:	 	 0.00000e+000
Z-axis:	 	 0.0000000000e+000
1	 7.5000000000e+001	 1.67668e-003
2	 7.5062500000e+001	 1.07788e-003
3	 7.5125000000e+001	 2.08102e-003
4	 7.5187500000e+001	 3.10017e-003
5	 7.5250000000e+001	 2.49668e-003
6	 7.5312500000e+001	 2.89284e-003
7	 7.5375000000e+001	 3.89632e-003
8	 7.5437500000e+001	 2.78340e-003
9	 7.5500000000e+001	 2.27702e-003
10	 7.5562500000e+001	 1.62352e-003
11	 7.5625000000e+001	 2.04316e-003
12	 7.5687500000e+001	 2.94299e-003
13	 7.5750000000e+001	 7.20984e-003
14	 7.5812500000e+001	 7.15596e-003
15	 7.5875000000e+001	 2.77190e-003
16	 7.5937500000e+001	 6.19913e-003
17	 7.6000000000e+001	 5.14813e-003
18	 7.6062500000e+001	 2.03374e-003
19	 7.6125000000e+001	 2.15461e-003
20	 7.6187500000e+001	 1.06693e-003
21	 7.6250000000e+001	 1.97646e-003
22	 7.6312500000e+001	 2.76748e-003
23	 7.6375000000e+001	 2.75852e-003
24	 7.6437500000e+001	 3.02818e-003
25	 7.6500000000e+001	 2.32071e-003
26	 7.6562500000e+001	 1.50656e-003
27	 7.6625000000e+001	 1.62824e-003
28	 7.6687500000e+001	 1.68469e-003
29	 7.6750000000e+001	 2.45351e-003
30	 7.6812500000e+001	 2.36507e-003
31	 7.6875000000e+001	 2.24512e-003
32	 7.6937500000e+001	 1.61766e-003
33	 7.7000000000e+001	 7.45541e-004
34	 7.7062500000e+001	 1.17055e-003
35	 7.7125000000e+001	 1.47894e-003
36	 7.7187500000e+001	 2.15234e-003
37	 7.7250000000e+001	 3.63484e-003
38	 7.7312500000e+001	 4.35752e-003
39	 7.7375000000e+001	 1.59848e-003
40	 7.7437500000e+001	 2.51380e-003
41	 7.7500000000e+001	 1.51348e-003
42	 7.7562500000e+001	 2.61368e-004
43	 7.7625000000e+001	 6.63144e-004
44	 7.7687500000e+001	 2.59796e-003
45	 7.7750000000e+001	 3.82786e-003
46	 7.7812500000e+001	 3.68747e-003
47	 7.7875000000e+001	 2.21060e-003
48	 7.7937500000e+001	 1.25430e-003
49	 7.8000000000e+001	 4.84015e-004
50	 7.8062500000e+001	 6.15930e-004
51	 7.8125000000e+001	 2.02778e-003
52	 7.8187500000e+001	 3.50407e-003
53	 7.8250000000e+001	 3.58802e-003
54	 7.8312500000e+001	 2.78865e-003
55	 7.8375000000e+001	 4.34412e-003
56	 7.8437500000e+001	 4.57371e-003
57	 7.8500000000e+001	 3.08837e-003
58	 7.8562500000e+001	 1.74416e-003
59	 7.8625000000e+001	 1.88790e-003
60	 7.8687500000e+001	 1.87158e-003
61	 7.8750000000e+001	 2.36909e-003
62	 7.8812500000e+001	 2.30609e-003
63	 7.8875000000e+001	 3.22233e-003
64	 7.8937500000e+001	 1.39354e-003
65	 7.9000000000e+001	 9.27549e-004
66	 7.9062500000e+001	 1.77502e-003
67	 7.9125000000e+001	 6.98728e-004
68	 7.9187500000e+001	 1.49911e-003
69	 7.9250000000e+001	 3.91017e-003
70	 7.9312500000e+001	 2.47198e-003
71	 7.9375000000e+001	 2.26721e-003
72	 7.9437500000e+001	 1.72467e-003
73	 7.9500000000e+001	 2.32800e-003
74	 7.9562500000e+001	 7.03913e-004
75	 7.9625000000e+001	 2.85059e-003
76	 7.9687500000e+001	 6.76667e-003
77	 7.9750000000e+001	 4.38358e-003
78	 7.9812500000e+001	 1.90536e-003
79	 7.9875000000e+001	 1.64265e-003
80	 7.9937500000e+001	 1.31555e-003
81	 8.0000000000e+001	 1.51005e-003
82	 8.0062500000e+001	 1.30294e-003
83	 8.0125000000e+001	 1.76068e-003
84	 8.0187500000e+001	 3.45584e-003
85	 8.0250000000e+001	 2.77932e-003
86	 8.0312500000e+001	 1.88609e-003
87	 8.0375000000e+001	 1.05527e-003
88	 8.0437500000e+001	 1.68749e-003
89	 8.0500000000e+001	 3.94856e-003
90	 8.0562500000e+001	 2.59896e-003
91	 8.0625000000e+001	 3.39042e-003
92	 8.0687500000e+001	 2.40810e-003
93	 8.0750000000e+001	 2.18415e-003
94	 8.0812500000e+001	 2.49259e-003
95	 8.0875000000e+001	 4.32504e-003
96	 8.0937500000e+001	 3.14657e-003
97	 8.1000000000e+001	 8.12969e-004
98	 8.1062500000e+001	 8.52280e-004
99	 8.1125000000e+001	 1.37678e-003
100	 8.1187500000e+001	 1.40872e-003
101	 8.1250000000e+001	 2.36929e-003
102	 8.1312500000e+001	 1.69579e-003
103	 8.1375000000e+001	 1.40875e-003
104	 8.1437500000e+001	 1.22752e-003
105	 8.1500000000e+001	 2.27614e-003
106	 8.1562500000e+001	 3.51792e-003
107	 8.1625000000e+001	 2.98447e-003
108	 8.1687500000e+001	 2.39004e-003
109	 8.1750000000e+001	 3.67101e-003
110	 8.1812500000e+001	 3.74788e-003
111	 8.1875000000e+001	 3.56454e-003
112	 8.1937500000e+001	 1.86554e-003
113	 8.2000000000e+001	 1.13307e-003
114	 8.2062500000e+001	 2.13007e-003
115	 8.2125000000e+001	 4.06293e-003
116	 8.2187500000e+001	 5.28558e-003
117	 8.2250000000e+001	 4.93393e-003
118	 8.2312500000e+001	 6.08259e-003
119	 8.2375000000e+001	 4.12579e-003
120	 8.2437500000e+001	 2.42697e-003
121	 8.2500000000e+001	 1.37778e-003
122	 8.2562500000e+001	 2.79514e-003
123	 8.2625000000e+001	 2.71235e-003
124	 8.2687500000e+001	 2.24440e-003
125	 8.2750000000e+001	 2.99771e-003
126	 8.2812500000e+001	 3.84896e-003
127	 8.2875000000e+001	 4.29567e-003
128	 8.2937500000e+001	 1.22118e-003
129	 8.3000000000e+001	 1.98170e-003
130	 8.3062500000e+001	 1.59496e-003
131	 8.3125000000e+001	 1.17563e-003
132	 8.3187500000e+001	 2.00338e-003
133	 8.3250000000e+001	 2.02652e-003
134	 8.3312500000e+001	 2.11753e-003
135	 8.3375000000e+001	 3.53256e-003
136	 8.3437500000e+001	 4.21211e-003
137	 8.3500000000e+001	 2.46265e-003
138	 8.3562500000e+001	 1.64528e-003
139	 8.3625000000e+001	 2.34308e-003
140	 8.3687500000e+001	 3.02466e-003
141	 8.3750000000e+001	 2.46713e-003
142	 8.3812500000e+001	 1.94920e-003
143	 8.3875000000e+001	 2.50894e-003
144	 8.3937500000e+001	 2.94704e-003
145	 8.4000000000e+001	 1.94383e-003
146	 8.4062500000e+001	 8.07298e-004
147	 8.4125000000e+001	 1.24842e-003
148	 8.4187500000e+001	 1.42530e-003
149	 8.4250000000e+001	 2.42230e-003
150	 8.4312500000e+001	 3.54063e-003
151	 8.4375000000e+001	 1.27548e-003
152	 8.4437500000e+001	 1.32569e-003
153	 8.4500000000e+001	 1.48243e-003
154	 8.4562500000e+001	 2.28047e-003
155	 8.4625000000e+001	 1.54682e-003
156	 8.4687500000e+001	 3.85314e-003
157	 8.4750000000e+001	 5.24200e-003
158	 8.4812500000e+001	 4.33012e-003
159	 8.4875000000e+001	 3.51119e-003
160	 8.4937500000e+001	 2.63147e-003
161	 8.5000000000e+001	 2.68891e-003
162	 8.5062500000e+001	 3.26446e-003
163	 8.5125000000e+001	 2.97604e-003
164	 8.5187500000e+001	 3.33441e-003
165	 8.5250000000e+001	 1.12425e-003
166	 8.5312500000e+001	 4.44929e-004
167	 8.5375000000e+001	 2.30425e-003
168	 8.5437500000e+001	 2.76302e-003
169	 8.5500000000e+001	 9.12342e-004
170	 8.5562500000e+001	 6.18666e-004
171	 8.5625000000e+001	 1.51079e-003
172	 8.5687500000e+001	 1.15225e-003
173	 8.5750000000e+001	 1.53373e-003
174	 8.5812500000e+001	 1.79863e-003
175	 8.5875000000e+001	 5.39790e-004
176	 8.5937500000e+001	 9.71966e-004
177	 8.6000000000e+001	 1.30846e-003
178	 8.6062500000e+001	 1.24280e-003
179	 8.6125000000e+001	 1.41913e-003
180	 8.6187500000e+001	 1.78007e-003
181	 8.6250000000e+001	 2.65034e-003
182	 8.6312500000e+001	 2.92122e-003
183	 8.6375000000e+001	 2.27667e-003
184	 8.6437500000e+001	 1.39139e-003
185	 8.6500000000e+001	 2.80399e-003
186	 8.6562500000e+001	 5.45270e-003
187	 8.6625000000e+001	 3.54296e-003
188	 8.6687500000e+001	 2.32571e-003
189	 8.6750000000e+001	 2.19752e-003
190	 8.6812500000e+001	 2.04052e-003
191	 8.6875000000e+001	 2.98829e-003
192	 8.6937500000e+001	 1.89603e-003
193	 8.7000000000e+001	 1.72690e-003
194	 8.7062500000e+001	 2.58670e-003
195	 8.7125000000e+001	 1.92041e-003
196	 8.7187500000e+001	 6.53840e-003
197	 8.7250000000e+001	 4.68674e-003
198	 8.7312500000e+001	 2.74137e-003
199	 8.7375000000e+001	 2.98701e-003
200	 8.7437500000e+001	 2.94051e-003
201	 8.7500000000e+001	 2.66844e-003
202	 8.7562500000e+001	 4.27471e-003
203	 8.7625000000e+001	 6.37954e-003
204	 8.7687500000e+001	 4.56984e-003
205	 8.7750000000e+001	 3.03502e-003
206	 8.7812500000e+001	 2.58917e-003
207	 8.7875000000e+001	 4.79662e-003
208	 8.7937500000e+001	 5.95441e-003
209	 8.8000000000e+001	 4.88675e-003
210	 8.8062500000e+001	 1.71072e-003
211	 8.8125000000e+001	 3.77828e-003
212	 8.8187500000e+001	 3.80143e-003
213	 8.8250000000e+001	 2.41000e-003
214	 8.8312500000e+001	 5.03491e-003
215	 8.8375000000e+001	 3.64998e-003
216	 8.8437500000e+001	 2.44255e-003
217	 8.8500000000e+001	 1.35415e-003
218	 8.8562500000e+001	 4.76214e-003
219	 8.8625000000e+001	 6.47464e-003
220	 8.8687500000e+001	 3.67540e-003
221	 8.8750000000e+001	 2.27048e-003
222	 8.8812500000e+001	 3.79050e-003
223	 8.8875000000e+001	 7.55088e-003
224	 8.8937500000e+001	 3.72917e-003
225	 8.9000000000e+001	 2.65175e-003
226	 8.9062500000e+001	 3.37740e-003
227	 8.9125000000e+001	 5.23488e-003
228	 8.9187500000e+001	 4.55798e-003
229	 8.9250000000e+001	 3.08543e-003
230	 8.9312500000e+001	 5.33580e-003
231	 8.9375000000e+001	 3.17574e-003
232	 8.9437500000e+001	 2.23014e-003
233	 8.9500000000e+001	 5.13957e-003
234	 8.9562500000e+001	 8.21094e-003
235	 8.9625000000e+001	 3.92023e-003
236	 8.9687500000e+001	 2.76088e-003
237	 8.9750000000e+001	 3.24276e-003
238	 8.9812500000e+001	 3.42882e-003
239	 8.9875000000e+001	 4.34004e-003
240	 8.9937500000e+001	 4.72055e-003
241	 9.0000000000e+001	 3.37537e-003
242	 9.0062500000e+001	 3.10378e-003
243	 9.0125000000e+001	 1.81788e-003
244	 9.0187500000e+001	 1.45564e-003
245	 9.0250000000e+001	 2.07485e-003
246	 9.0312500000e+001	 2.15803e-003
247	 9.0375000000e+001	 2.03421e-003
248	 9.0437500000e+001	 3.74861e-003
249	 9.0500000000e+001	 4.68924e-003
250	 9.0562500000e+001	 5.69990e-003
251	 9.0625000000e+001	 6.68736e-003
252	 9.0687500000e+001	 3.80246e-003
253	 9.0750000000e+001	 3.38665e-003
254	 9.0812500000e+001	 2.82681e-003
255	 9.0875000000e+001	 2.11963e-003
256	 9.0937500000e+001	 6.20978e-003
257	 9.1000000000e+001	 7.37566e-003
258	 9.1062500000e+001	 3.23367e-003
259	 9.1125000000e+001	 1.74806e-003
260	 9.1187500000e+001	 5.63049e-003
261	 9.1250000000e+001	 5.31525e-003
262	 9.1312500000e+001	 2.11129e-003
263	 9.1375000000e+001	 2.45576e-003
264	 9.1437500000e+001	 3.64886e-003
265	 9.1500000000e+001	 2.70711e-003
266	 9.1562500000e+001	 2.55071e-003
267	 9.1625000000e+001	 5.75144e-003
268	 9.1687500000e+001	 6.82238e-003
269	 9.1750000000e+001	 7.04885e-003
270	 9.1812500000e+001	 4.65930e-003
271	 9.1875000000e+001	 2.46809e-003
272	 9.1937500000e+001	 3.00938e-003
273	 9.2000000000e+001	 2.78091e-003
274	 9.2062500000e+001	 1.28142e-003
275	 9.2125000000e+001	 1.85976e-003
276	 9.2187500000e+001	 2.42451e-003
277	 9.2250000000e+001	 3.38806e-003
278	 9.2312500000e+001	 3.55682e-003
279	 9.2375000000e+001	 5.20862e-003
280	 9.2437500000e+001	 2.88546e-003
281	 9.2500000000e+001	 1.91742e-003
282	 9.2562500000e+001	 2.72756e-003
283	 9.2625000000e+001	 3.31340e-003
284	 9.2687500000e+001	 5.01965e-003
285	 9.2750000000e+001	 6.69730e-003
286	 9.2812500000e+001	 7.88643e-003
287	 9.2875000000e+001	 8.70776e-003
288	 9.2937500000e+001	 6.45619e-003
289	 9.3000000000e+001	 3.41548e-003
290	 9.3062500000e+001	 1.23641e-002
291	 9.3125000000e+001	 1.13090e-002
292	 9.3187500000e+001	 7.72829e-003
293	 9.3250000000e+001	 4.96111e-003
294	 9.3312500000e+001	 5.25465e-003
295	 9.3375000000e+001	 6.81057e-003
296	 9.3437500000e+001	 5.22461e-003
297	 9.3500000000e+001	 3.00547e-003
298	 9.3562500000e+001	 3.76106e-003
299	 9.3625000000e+001	 5.20721e-003
300	 9.3687500000e+001	 5.09029e-003
301	 9.3750000000e+001	 5.38287e-003
302	 9.3812500000e+001	 7.01689e-003
303	 9.3875000000e+001	 4.86280e-003
304	 9.3937500000e+001	 7.06104e-003
305	 9.4000000000e+001	 4.16885e-003
306	 9.4062500000e+001	 2.93653e-003
307	 9.4125000000e+001	 5.46119e-003
308	 9.4187500000e+001	 3.10378e-003
309	 9.4250000000e+001	 2.79352e-003
310	 9.4312500000e+001	 5.74437e-003
311	 9.4375000000e+001	 1.66132e-002
312	 9.4437500000e+001	 1.26932e-002
313	 9.4500000000e+001	 3.84456e-003
314	 9.4562500000e+001	 8.86384e-003
315	 9.4625000000e+001	 6.58792e-003
316	 9.4687500000e+001	 2.33847e-003
317	 9.4750000000e+001	 5.82250e-003
318	 9.4812500000e+001	 1.02247e-002
319	 9.4875000000e+001	 6.75977e-003
320	 9.4937500000e+001	 5.27911e-003
321	 9.5000000000e+001	 7.92365e-003
322	 9.5062500000e+001	 1.05746e-002
323	 9.5125000000e+001	 9.59180e-003
324	 9.5187500000e+001	 1.00637e-002
325	 9.5250000000e+001	 1.55247e-002
326	 9.5312500000e+001	 7.13013e-003
327	 9.5375000000e+001	 1.01555e-002
328	 9.5437500000e+001	 1.23572e-002
329	 9.5500000000e+001	 1.37881e-002
330	 9.5562500000e+001	 1.17137e-002
331	 9.5625000000e+001	 5.68216e-003
332	 9.5687500000e+001	 8.67967e-003
333	 9.5750000000e+001	 1.31879e-002
334	 9.5812500000e+001	 7.34024e-003
335	 9.5875000000e+001	 8.22091e-003
336	 9.5937500000e+001	 1.15765e-002
337	 9.6000000000e+001	 8.35564e-003
338	 9.6062500000e+001	 5.89744e-003
339	 9.6125000000e+001	 7.74872e-003
340	 9.6187500000e+001	 1.40090e-002
341	 9.6250000000e+001	 1.14762e-002
342	 9.6312500000e+001	 5.40081e-003
343	 9.6375000000e+001	 6.30088e-003
344	 9.6437500000e+001	 4.67806e-003
345	 9.6500000000e+001	 5.73578e-003
346	 9.6562500000e+001	 7.14567e-003
347	 9.6625000000e+001	 1.25310e-002
348	 9.6687500000e+001	 7.49990e-003
349	 9.6750000000e+001	 1.05005e-002
350	 9.6812500000e+001	 2.04989e-002
351	 9.6875000000e+001	 1.78844e-002
352	 9.6937500000e+001	 1.24257e-002
353	 9.7000000000e+001	 7.97404e-003
354	 9.7062500000e+001	 1.11653e-002
355	 9.7125000000e+001	 1.50090e-002
356	 9.7187500000e+001	 1.61135e-002
357	 9.7250000000e+001	 1.36889e-002
358	 9.7312500000e+001	 9.66457e-003
359	 9.7375000000e+001	 1.08329e-002
360	 9.7437500000e+001	 6.44035e-003
361	 9.7500000000e+001	 1.70778e-002
362	 9.7562500000e+001	 2.04242e-002
363	 9.7625000000e+001	 8.93069e-003
364	 9.7687500000e+001	 9.75119e-003
365	 9.7750000000e+001	 1.55057e-002
366	 9.7812500000e+001	 1.41186e-002
367	 9.7875000000e+001	 1.63109e-002
368	 9.7937500000e+001	 1.21932e-002
369	 9.8000000000e+001	 1.94500e-002
370	 9.8062500000e+001	 1.00531e-002
371	 9.8125000000e+001	 5.88827e-003
372	 9.8187500000e+001	 1.09966e-002
373	 9.8250000000e+001	 3.52391e-003
374	 9.8312500000e+001	 5.42232e-003
375	 9.8375000000e+001	 1.23173e-002
376	 9.8437500000e+001	 6.56793e-003
377	 9.8500000000e+001	 1.03340e-002
378	 9.8562500000e+001	 1.93611e-002
379	 9.8625000000e+001	 1.26316e-002
380	 9.8687500000e+001	 1.22599e-002
381	 9.8750000000e+001	 7.60430e-003
382	 9.8812500000e+001	 7.94012e-003
383	 9.8875000000e+001	 2.19526e-002
384	 9.8937500000e+001	 2.24245e-002
385	 9.9000000000e+001	 1.68586e-002
386	 9.9062500000e+001	 1.38125e-002
387	 9.9125000000e+001	 1.88627e-002
388	 9.9187500000e+001	 7.89278e-003
389	 9.9250000000e+001	 2.60654e-002
390	 9.9312500000e+001	 1.76326e-002
391	 9.9375000000e+001	 3.85169e-003
392	 9.9437500000e+001	 7.22120e-003
393	 9.9500000000e+001	 1.26999e-002
394	 9.9562500000e+001	 7.29330e-003
395	 9.9625000000e+001	 6.80559e-003
396	 9.9687500000e+001	 1.44043e-002
397	 9.9750000000e+001	 2.03125e-002
398	 9.9812500000e+001	 6.83865e-003
399	 9.9875000000e+001	 1.05346e-002
400	 9.9937500000e+001	 9.52164e-003
401	 1.0000000000e+002	 1.23080e-002
402	 1.0006250000e+002	 1.07097e-002
403	 1.0012500000e+002	 1.40193e-002
404	 1.0018750000e+002	 1.24910e-002
405	 1.0025000000e+002	 1.74870e-002
406	 1.0031250000e+002	 1.15804e-002
407	 1.0037500000e+002	 1.78068e-002
408	 1.0043750000e+002	 2.65596e-002
409	 1.0050000000e+002	 1.96918e-002
410	 1.0056250000e+002	 7.72700e-003
411	 1.0062500000e+002	 8.36032e-003
412	 1.0068750000e+002	 1.39191e-002
413	 1.0075000000e+002	 2.85882e-002
414	 1.0081250000e+002	 2.75724e-002
415	 1.0087500000e+002	 1.51125e-002
416	 1.0093750000e+002	 1.95292e-002
417	 1.0100000000e+002	 1.86162e-002
418	 1.0106250000e+002	 2.02976e-002
419	 1.0112500000e+002	 1.40309e-002
420	 1.0118750000e+002	 1.62528e-002
421	 1.0125000000e+002	 2.26576e-002
422	 1.0131250000e+002	 1.96634e-002
423	 1.0137500000e+002	 7.35710e-003
424	 1.0143750000e+002	 9.41247e-003
425	 1.0150000000e+002	 7.95671e-003
426	 1.0156250000e+002	 8.22960e-003
427	 1.0162500000e+002	 2.57480e-002
428	 1.0168750000e+002	 1.85870e-002
429	 1.0175000000e+002	 1.08650e-002
430	 1.0181250000e+002	 2.23830e-002
431	 1.0187500000e+002	 2.82965e-002
432	 1.0193750000e+002	 2.42254e-002
433	 1.0200000000e+002	 3.84348e-002
434	 1.0206250000e+002	 3.19407e-002
435	 1.0212500000e+002	 1.23925e-002
436	 1.0218750000e+002	 1.35013e-002
437	 1.0225000000e+002	 1.03502e-002
438	 1.0231250000e+002	 2.15039e-002
439	 1.0237500000e+002	 2.96573e-002
440	 1.0243750000e+002	 2.60327e-002
441	 1.0250000000e+002	 4.35569e-002
442	 1.0256250000e+002	 5.65502e-002
443	 1.0262500000e+002	 3.55116e-002
444	 1.0268750000e+002	 2.21444e-002
445	 1.0275000000e+002	 4.42673e-002
446	 1.0281250000e+002	 5.37540e-002
447	 1.0287500000e+002	 3.66130e-002
448	 1.0293750000e+002	 3.37295e-002
449	 1.0300000000e+002	 3.09532e-002
450	 1.0306250000e+002	 1.71850e-002
451	 1.0312500000e+002	 5.39063e-002
452	 1.0318750000e+002	 9.32012e-002
453	 1.0325000000e+002	 3.66416e-002
454	 1.0331250000e+002	 2.22470e-002
455	 1.0337500000e+002	 2.94913e-002
456	 1.0343750000e+002	 5.87413e-002
457	 1.0350000000e+002	 5.69778e-002
458	 1.0356250000e+002	 6.52211e-002
459	 1.0362500000e+002	 5.35811e-002
460	 1.0368750000e+002	 5.30956e-002
461	 1.0375000000e+002	 4.51353e-002
462	 1.0381250000e+002	 4.25833e-002
463	 1.0387500000e+002	 4.78641e-002
464	 1.0393750000e+002	 4.11709e-002
465	 1.0400000000e+002	 5.56696e-002
466	 1.0406250000e+002	 4.84963e-002
467	 1.0412500000e+002	 2.47415e-002
468	 1.0418750000e+002	 8.52400e-002
469	 1.0425000000e+002	 1.25454e-001
470	 1.0431250000e+002	 1.06318e-001
471	 1.0437500000e+002	 7.24994e-002
472	 1.0443750000e+002	 3.61669e-002
473	 1.0450000000e+002	 2.15961e-002
474	 1.0456250000e+002	 2.68392e-002
475	 1.0462500000e+002	 2.40333e-002
476	 1.0468750000e+002	 4.86202e-002
477	 1.0475000000e+002	 7.85684e-002
478	 1.0481250000e+002	 4.80206e-002
479	 1.0487500000e+002	 9.57408e-002
480	 1.0493750000e+002	 1.26062e-001
481	 1.0500000000e+002	 8.09536e-002
482	 1.0506250000e+002	 5.45812e-002
483	 1.0512500000e+002	 7.94269e-002
484	 1.0518750000e+002	 6.38316e-002
485	 1.0525000000e+002	 8.07654e-002
486	 1.0531250000e+002	 6.33154e-002
487	 1.0537500000e+002	 6.64289e-002
488	 1.0543750000e+002	 1.03217e-001
489	 1.0550000000e+002	 1.60378e-001
490	 1.0556250000e+002	 8.68325e-002
491	 1.0562500000e+002	 5.56593e-002
492	 1.0568750000e+002	 5.91717e-002
493	 1.0575000000e+002	 5.46540e-002
494	 1.0581250000e+002	 3.10914e-002
495	 1.0587500000e+002	 2.88490e-002
496	 1.0593750000e+002	 2.37323e-002
497	 1.0600000000e+002	 1.00422e-001
498	 1.0606250000e+002	 1.74912e-001
499	 1.0612500000e+002	 1.27999e-001
500	 1.0618750000e+002	 7.90303e-002
501	 1.0625000000e+002	 5.62645e-002
502	 1.0631250000e+002	 7.64284e-002
503	 1.0637500000e+002	 1.33397e-001
504	 1.0643750000e+002	 1.13537e-001
505	 1.0650000000e+002	 1.00826e-001
506	 1.0656250000e+002	 1.87744e-001
507	 1.0662500000e+002	 1.55721e-001
508	 1.0668750000e+002	 1.54492e-001
509	 1.0675000000e+002	 7.55385e-002
510	 1.0681250000e+002	 1.14289e-001
511	 1.0687500000e+002	 1.57727e-001
512	 1.0693750000e+002	 3.99167e-001
513	 1.0700000000e+002	 4.60129e-001
514	 1.0706250000e+002	 2.85070e-001
515	 1.0712500000e+002	 3.40601e-001
516	 1.0718750000e+002	 3.00157e-001
517	 1.0725000000e+002	 2.51672e-001
518	 1.0731250000e+002	 3.01947e-001
519	 1.0737500000e+002	 2.69607e-001
520	 1.0743750000e+002	 1.04363e-001
521	 1.0750000000e+002	 2.18537e-001
522	 1.0756250000e+002	 3.62636e-001
523	 1.0762500000e+002	 2.32617e-001
524	 1.0768750000e+002	 4.16761e-001
525	 1.0775000000e+002	 3.74754e-001
526	 1.0781250000e+002	 2.16209e-001
527	 1.0787500000e+002	 4.15169e-001
528	 1.0793750000e+002	 3.47931e-001
529	 1.0800000000e+002	 2.55927e-001
530	 1.0806250000e+002	 1.45716e-001
531	 1.0812500000e+002	 1.63345e-001
532	 1.0818750000e+002	 2.16219e-001
533	 1.0825000000e+002	 2.27630e-001
534	 1.0831250000e+002	 1.57524e-001
535	 1.0837500000e+002	 2.06763e-001
536	 1.0843750000e+002	 1.54831e-001
537	 1.0850000000e+002	 1.10659e-001
538	 1.0856250000e+002	 2.33803e-001
539	 1.0862500000e+002	 3.13369e-001
540	 1.0868750000e+002	 1.88486e-001
541	 1.0875000000e+002	 1.60739e-001
542	 1.0881250000e+002	 2.29016e-001
543	 1.0887500000e+002	 2.18342e-001
544	 1.0893750000e+002	 1.30377e-001
545	 1.0900000000e+002	 2.20571e-001
546	 1.0906250000e+002	 1.56393e-001
547	 1.0912500000e+002	 1.46925e-001
548	 1.0918750000e+002	 3.13493e-001
549	 1.0925000000e+002	 2.98877e-001
550	 1.0931250000e+002	 1.77824e-001
551	 1.0937500000e+002	 3.02404e-001
552	 1.0943750000e+002	 1.74519e-001
553	 1.0950000000e+002	 1.55048e-001
554	 1.0956250000e+002	 2.22393e-001
555	 1.0962500000e+002	 2.69030e-001
556	 1.0968750000e+002	 1.74941e-001
557	 1.0975000000e+002	 1.01995e-001
558	 1.0981250000e+002	 1.23759e-001
559	 1.0987500000e+002	 1.55126e-001
560	 1.0993750000e+002	 2.87326e-001
561	 1.1000000000e+002	 2.13539e-001
562	 1.1006250000e+002	 1.68513e-001
563	 1.1012500000e+002	 2.60718e-001
564	 1.1018750000e+002	 3.72104e-001
565	 1.1025000000e+002	 1.37617e-001
566	 1.1031250000e+002	 2.68547e-001
567	 1.1037500000e+002	 2.20154e-001
568	 1.1043750000e+002	 1.60367e-001
569	 1.1050000000e+002	 1.65748e-001
570	 1.1056250000e+002	 1.19430e-001
571	 1.1062500000e+002	 1.77694e-001
572	 1.1068750000e+002	 5.48583e-002
573	 1.1075000000e+002	 8.36630e-002
574	 1.1081250000e+002	 1.55431e-001
575	 1.1087500000e+002	 1.11131e-001
576	 1.1093750000e+002	 5.71512e-002
577	 1.1100000000e+002	 5.95113e-002
578	 1.1106250000e+002	 1.54402e-001
579	 1.1112500000e+002	 2.26916e-001
580	 1.1118750000e+002	 1.11414e-001
581	 1.1125000000e+002	 6.99205e-002
582	 1.1131250000e+002	 1.16352e-001
583	 1.1137500000e+002	 9.98194e-002
584	 1.1143750000e+002	 8.38137e-002
585	 1.1150000000e+002	 3.93070e-002
586	 1.1156250000e+002	 7.17630e-002
587	 1.1162500000e+002	 6.40446e-002
588	 1.1168750000e+002	 7.38418e-002
589	 1.1175000000e+002	 8.48103e-002
590	 1.1181250000e+002	 8.47351e-002
591	 1.1187500000e+002	 1.41693e-001
592	 1.1193750000e+002	 1.27214e-001
593	 1.1200000000e+002	 1.46789e-001
594	 1.1206250000e+002	 1.80170e-001
595	 1.1212500000e+002	 5.54556e-002
596	 1.1218750000e+002	 6.02254e-002
597	 1.1225000000e+002	 6.21501e-002
598	 1.1231250000e+002	 2.76112e-002
599	 1.1237500000e+002	 4.45008e-002
600	 1.1243750000e+002	 1.81203e-001
601	 1.1250000000e+002	 1.16203e-001
602	 1.1256250000e+002	 1.02132e-001
603	 1.1262500000e+002	 2.04444e-001
604	 1.1268750000e+002	 1.13270e-001
605	 1.1275000000e+002	 8.55806e-002
606	 1.1281250000e+002	 1.01215e-001
607	 1.1287500000e+002	 9.67291e-002
608	 1.1293750000e+002	 4.07526e-002
609	 1.1300000000e+002	 2.10453e-002
610	 1.1306250000e+002	 6.56643e-002
611	 1.1312500000e+002	 6.54534e-002
612	 1.1318750000e+002	 8.23659e-002
613	 1.1325000000e+002	 1.77946e-001
614	 1.1331250000e+002	 2.05308e-001
615	 1.1337500000e+002	 1.08047e-001
616	 1.1343750000e+002	 7.82699e-002
617	 1.1350000000e+002	 1.12608e-001
618	 1.1356250000e+002	 7.70571e-002
619	 1.1362500000e+002	 5.05567e-002
620	 1.1368750000e+002	 8.00033e-002
621	 1.1375000000e+002	 1.11854e-001
622	 1.1381250000e+002	 4.79689e-002
623	 1.1387500000e+002	 2.50466e-002
624	 1.1393750000e+002	 4.02380e-002
625	 1.1400000000e+002	 9.41981e-002
626	 1.1406250000e+002	 8.40772e-002
627	 1.1412500000e+002	 7.55796e-002
628	 1.1418750000e+002	 8.24224e-002
629	 1.1425000000e+002	 1.17899e-001
630	 1.1431250000e+002	 9.70393e-002
631	 1.1437500000e+002	 1.13639e-001
632	 1.1443750000e+002	 1.08943e-001
633	 1.1450000000e+002	 5.43320e-002
634	 1.1456250000e+002	 5.44353e-002
635	 1.1462500000e+002	 2.99855e-002
636	 1.1468750000e+002	 5.26005e-002
637	 1.1475000000e+002	 5.54674e-002
638	 1.1481250000e+002	 2.28125e-002
639	 1.1487500000e+002	 2.91989e-002
640	 1.1493750000e+002	 3.93720e-002
641	 1.1500000000e+002	 2.66283e-002
642	 1.1506250000e+002	 3.58753e-002
643	 1.1512500000e+002	 3.61944e-002
644	 1.1518750000e+002	 2.74043e-002
645	 1.1525000000e+002	 2.55924e-002
646	 1.1531250000e+002	 1.94545e-002
647	 1.1537500000e+002	 5.42824e-002
648	 1.1543750000e+002	 3.96259e-002
649	 1.1550000000e+002	 2.49100e-002
650	 1.1556250000e+002	 6.24005e-002
651	 1.1562500000e+002	 7.20237e-002
652	 1.1568750000e+002	 5.77607e-002
653	 1.1575000000e+002	 3.55298e-002
654	 1.1581250000e+002	 2.09558e-002
655	 1.1587500000e+002	 2.48624e-002
656	 1.1593750000e+002	 1.95432e-002
657	 1.1600000000e+002	 3.15784e-002
658	 1.1606250000e+002	 3.77218e-002
659	 1.1612500000e+002	 1.63212e-002
660	 1.1618750000e+002	 2.81281e-002
661	 1.1625000000e+002	 4.76421e-002
662	 1.1631250000e+002	 4.73835e-002
663	 1.1637500000e+002	 3.59625e-002
664	 1.1643750000e+002	 4.17009e-002
665	 1.1650000000e+002	 3.30392e-002
666	 1.1656250000e+002	 3.37345e-002
667	 1.1662500000e+002	 3.44317e-002
668	 1.1668750000e+002	 2.79805e-002
669	 1.1675000000e+002	 2.02506e-002
670	 1.1681250000e+002	 2.34618e-002
671	 1.1687500000e+002	 2.28828e-002
672	 1.1693750000e+002	 1.56529e-002
673	 1.1700000000e+002	 1.97475e-002
674	 1.1706250000e+002	 4.37608e-002
675	 1.1712500000e+002	 3.74469e-002
676	 1.1718750000e+002	 1.00025e-002
677	 1.1725000000e+002	 1.13013e-002
678	 1.1731250000e+002	 2.36706e-002
679	 1.1737500000e+002	 2.64527e-002
680	 1.1743750000e+002	 1.92740e-002
681	 1.1750000000e+002	 2.95845e-002
682	 1.1756250000e+002	 3.10335e-002
683	 1.1762500000e+002	 2.08647e-002
684	 1.1768750000e+002	 2.83457e-002
685	 1.1775000000e+002	 1.83312e-002
686	 1.1781250000e+002	 1.05242e-002
687	 1.1787500000e+002	 2.87415e-002
688	 1.1793750000e+002	 2.76503e-002
689	 1.1800000000e+002	 1.21998e-002
690	 1.1806250000e+002	 6.39041e-003
691	 1.1812500000e+002	 1.41469e-002
692	 1.1818750000e+002	 3.62196e-002
693	 1.1825000000e+002	 2.45560e-002
694	 1.1831250000e+002	 2.70054e-002
695	 1.1837500000e+002	 1.94745e-002
696	 1.1843750000e+002	 1.24050e-002
697	 1.1850000000e+002	 2.53447e-002
698	 1.1856250000e+002	 2.14662e-002
699	 1.1862500000e+002	 2.54383e-002
700	 1.1868750000e+002	 4.44257e-002
701	 1.1875000000e+002	 5.82954e-002
702	 1.1881250000e+002	 3.55216e-002
703	 1.1887500000e+002	 1.80668e-002
704	 1.1893750000e+002	 1.99489e-002
705	 1.1900000000e+002	 1.29852e-002
706	 1.1906250000e+002	 1.03578e-002
707	 1.1912500000e+002	 8.20062e-003
708	 1.1918750000e+002	 2.34975e-002
709	 1.1925000000e+002	 2.62461e-002
710	 1.1931250000e+002	 2.64104e-002
711	 1.1937500000e+002	 4.11093e-002
712	 1.1943750000e+002	 2.75898e-002
713	 1.1950000000e+002	 1.74417e-002
714	 1.1956250000e+002	 1.54519e-002
715	 1.1962500000e+002	 1.18673e-002
716	 1.1968750000e+002	 1.83897e-002
717	 1.1975000000e+002	 2.18395e-002
718	 1.1981250000e+002	 1.76423e-002
719	 1.1987500000e+002	 4.68681e-002
720	 1.1993750000e+002	 3.47181e-002
721	 1.2000000000e+002	 1.79238e-002
722	 1.2006250000e+002	 2.18729e-002
723	 1.2012500000e+002	 2.38479e-002
724	 1.2018750000e+002	 7.22329e-003
725	 1.2025000000e+002	 1.45627e-002
726	 1.2031250000e+002	 2.28687e-002
727	 1.2037500000e+002	 1.17453e-002
728	 1.2043750000e+002	 1.27915e-002
729	 1.2050000000e+002	 1.41707e-002
730	 1.2056250000e+002	 1.96885e-002
731	 1.2062500000e+002	 2.07940e-002
732	 1.2068750000e+002	 9.91019e-003
733	 1.2075000000e+002	 1.53053e-002
734	 1.2081250000e+002	 3.29763e-002
735	 1.2087500000e+002	 1.71191e-002
736	 1.2093750000e+002	 2.46420e-002
737	 1.2100000000e+002	 2.62737e-002
738	 1.2106250000e+002	 1.25824e-002
739	 1.2112500000e+002	 1.12381e-002
740	 1.2118750000e+002	 1.57746e-002
741	 1.2125000000e+002	 2.47604e-002
742	 1.2131250000e+002	 2.66958e-002
743	 1.2137500000e+002	 1.16024e-002
744	 1.2143750000e+002	 2.72602e-003
745	 1.2150000000e+002	 2.59006e-003
746	 1.2156250000e+002	 2.25809e-003
747	 1.2162500000e+002	 3.53430e-003
748	 1.2168750000e+002	 8.70352e-003
749	 1.2175000000e+002	 1.19206e-002
750	 1.2181250000e+002	 1.69553e-002
751	 1.2187500000e+002	 1.84975e-002
752	 1.2193750000e+002	 1.34572e-002
753	 1.2200000000e+002	 2.07330e-002
754	 1.2206250000e+002	 1.68703e-002
755	 1.2212500000e+002	 1.37079e-002
756	 1.2218750000e+002	 1.12366e-002
757	 1.2225000000e+002	 1.64274e-002
758	 1.2231250000e+002	 1.20934e-002
759	 1.2237500000e+002	 4.80947e-003
760	 1.2243750000e+002	 8.00523e-003
761	 1.2250000000e+002	 1.38455e-002
762	 1.2256250000e+002	 1.33253e-002
763	 1.2262500000e+002	 1.38272e-002
764	 1.2268750000e+002	 1.61057e-002
765	 1.2275000000e+002	 1.08028e-002
766	 1.2281250000e+002	 6.61378e-003
767	 1.2287500000e+002	 7.06797e-003
768	 1.2293750000e+002	 1.12261e-002
769	 1.2300000000e+002	 9.07393e-003
770	 1.2306250000e+002	 1.23055e-002
771	 1.2312500000e+002	 2.28166e-002
772	 1.2318750000e+002	 1.74788e-002
773	 1.2325000000e+002	 1.21649e-002
774	 1.2331250000e+002	 8.76434e-003
775	 1.2337500000e+002	 1.37660e-002
776	 1.2343750000e+002	 5.62277e-003
777	 1.2350000000e+002	 3.78428e-003
778	 1.2356250000e+002	 1.07796e-002
779	 1.2362500000e+002	 1.40421e-002
780	 1.2368750000e+002	 2.31892e-002
781	 1.2375000000e+002	 1.05831e-002
782	 1.2381250000e+002	 1.64737e-002
783	 1.2387500000e+002	 1.99860e-002
784	 1.2393750000e+002	 1.46200e-002
785	 1.2400000000e+002	 3.69447e-003
786	 1.2406250000e+002	 3.56210e-003
787	 1.2412500000e+002	 5.49463e-003
788	 1.2418750000e+002	 1.15378e-002
789	 1.2425000000e+002	 9.20410e-003
790	 1.2431250000e+002	 1.53143e-002
791	 1.2437500000e+002	 1.57733e-002
792	 1.2443750000e+002	 7.68683e-003
793	 1.2450000000e+002	 1.18978e-002
794	 1.2456250000e+002	 2.44209e-002
795	 1.2462500000e+002	 2.88134e-002
796	 1.2468750000e+002	 1.49543e-002
797	 1.2475000000e+002	 1.37288e-002
798	 1.2481250000e+002	 1.20027e-002
799	 1.2487500000e+002	 6.66477e-003
800	 1.2493750000e+002	 7.50168e-003
801	 1.2500000000e+002	 5.35776e-003
802	 1.2506250000e+002	 5.19452e-003
803	 1.2512500000e+002	 8.65458e-003
804	 1.2518750000e+002	 1.87074e-002
805	 1.2525000000e+002	 1.98207e-002
806	 1.2531250000e+002	 2.05225e-002
807	 1.2537500000e+002	 1.73535e-002
808	 1.2543750000e+002	 1.05918e-002
809	 1.2550000000e+002	 1.62640e-002
810	 1.2556250000e+002	 3.00284e-002
811	 1.2562500000e+002	 2.75964e-002
812	 1.2568750000e+002	 1.09453e-002
813	 1.2575000000e+002	 6.55187e-003
814	 1.2581250000e+002	 5.67279e-003
815	 1.2587500000e+002	 6.45349e-003
816	 1.2593750000e+002	 1.25977e-002
817	 1.2600000000e+002	 1.80487e-002
818	 1.2606250000e+002	 1.15404e-002
819	 1.2612500000e+002	 7.77145e-003
820	 1.2618750000e+002	 9.19447e-003
821	 1.2625000000e+002	 1.62272e-002
822	 1.2631250000e+002	 9.75284e-003
823	 1.2637500000e+002	 3.10811e-003
824	 1.2643750000e+002	 5.55221e-003
825	 1.2650000000e+002	 9.62517e-003
826	 1.2656250000e+002	 1.45525e-002
827	 1.2662500000e+002	 6.15217e-003
828	 1.2668750000e+002	 3.86764e-003
829	 1.2675000000e+002	 4.32639e-003
830	 1.2681250000e+002	 8.46689e-003
831	 1.2687500000e+002	 6.91782e-003
832	 1.2693750000e+002	 9.25699e-003
833	 1.2700000000e+002	 1.03958e-002
834	 1.2706250000e+002	 8.10981e-003
835	 1.2712500000e+002	 8.42734e-003
836	 1.2718750000e+002	 1.09640e-002
837	 1.2725000000e+002	 2.18184e-002
838	 1.2731250000e+002	 1.19227e-002
839	 1.2737500000e+002	 9.56471e-003
840	 1.2743750000e+002	 1.46512e-002
841	 1.2750000000e+002	 1.32522e-002
842	 1.2756250000e+002	 6.24458e-003
843	 1.2762500000e+002	 7.16955e-003
844	 1.2768750000e+002	 1.18564e-002
845	 1.2775000000e+002	 1.34711e-002
846	 1.2781250000e+002	 9.75480e-003
847	 1.2787500000e+002	 5.35908e-003
848	 1.2793750000e+002	 7.25979e-003
849	 1.2800000000e+002	 1.18571e-002
850	 1.2806250000e+002	 8.48598e-003
851	 1.2812500000e+002	 1.29429e-002
852	 1.2818750000e+002	 1.31129e-002
853	 1.2825000000e+002	 1.96147e-002
854	 1.2831250000e+002	 1.85595e-002
855	 1.2837500000e+002	 1.08948e-002
856	 1.2843750000e+002	 1.49672e-002
857	 1.2850000000e+002	 1.85524e-002
858	 1.2856250000e+002	 2.09454e-002
859	 1.2862500000e+002	 1.13779e-002
860	 1.2868750000e+002	 4.61443e-003
861	 1.2875000000e+002	 6.24951e-003
862	 1.2881250000e+002	 1.58878e-002
863	 1.2887500000e+002	 3.25956e-002
864	 1.2893750000e+002	 2.59360e-002
865	 1.2900000000e+002	 9.88216e-003
866	 1.2906250000e+002	 3.95709e-003
867	 1.2912500000e+002	 8.90006e-003
868	 1.2918750000e+002	 2.82188e-002
869	 1.2925000000e+002	 3.02389e-002
870	 1.2931250000e+002	 1.44146e-002
871	 1.2937500000e+002	 6.56636e-003
872	 1.2943750000e+002	 8.41196e-003
873	 1.2950000000e+002	 1.09029e-002
874	 1.2956250000e+002	 1.54857e-002
875	 1.2962500000e+002	 1.83007e-002
876	 1.2968750000e+002	 8.56921e-003
877	 1.2975000000e+002	 9.96964e-003
878	 1.2981250000e+002	 1.27980e-002
879	 1.2987500000e+002	 5.85499e-003
880	 1.2993750000e+002	 6.28544e-003
881	 1.3000000000e+002	 8.11463e-003
882	 1.3006250000e+002	 6.07128e-003
883	 1.3012500000e+002	 8.05174e-003
884	 1.3018750000e+002	 1.40938e-002
885	 1.3025000000e+002	 7.65221e-003
886	 1.3031250000e+002	 5.14337e-003
887	 1.3037500000e+002	 1.26048e-002
888	 1.3043750000e+002	 1.27049e-002
889	 1.3050000000e+002	 8.22973e-003
890	 1.3056250000e+002	 4.57284e-003
891	 1.3062500000e+002	 3.75605e-003
892	 1.3068750000e+002	 2.72439e-003
893	 1.3075000000e+002	 1.54189e-003
894	 1.3081250000e+002	 3.81129e-003
895	 1.3087500000e+002	 8.88329e-003
896	 1.3093750000e+002	 8.32047e-003
897	 1.3100000000e+002	 1.09775e-002
898	 1.3106250000e+002	 7.35102e-003
899	 1.3112500000e+002	 9.09173e-003
900	 1.3118750000e+002	 6.24040e-003
901	 1.3125000000e+002	 7.42249e-003
902	 1.3131250000e+002	 9.95757e-003
903	 1.3137500000e+002	 8.84966e-003
904	 1.3143750000e+002	 6.42187e-003
905	 1.3150000000e+002	 1.32025e-002
906	 1.3156250000e+002	 1.29487e-002
907	 1.3162500000e+002	 9.49031e-003
908	 1.3168750000e+002	 1.32778e-002
909	 1.3175000000e+002	 7.64011e-003
910	 1.3181250000e+002	 9.85678e-003
911	 1.3187500000e+002	 6.83645e-003
912	 1.3193750000e+002	 7.13699e-003
913	 1.3200000000e+002	 8.57593e-003
914	 1.3206250000e+002	 6.40046e-003
915	 1.3212500000e+002	 1.40013e-002
916	 1.3218750000e+002	 1.93450e-002
917	 1.3225000000e+002	 1.55645e-002
918	 1.3231250000e+002	 1.05865e-002
919	 1.3237500000e+002	 8.07828e-003
920	 1.3243750000e+002	 1.29583e-002
921	 1.3250000000e+002	 1.11903e-002
922	 1.3256250000e+002	 5.67120e-003
923	 1.3262500000e+002	 1.53901e-003
924	 1.3268750000e+002	 1.55789e-003
925	 1.3275000000e+002	 7.55745e-003
926	 1.3281250000e+002	 7.07715e-003
927	 1.3287500000e+002	 8.77838e-003
928	 1.3293750000e+002	 1.19809e-002
929	 1.3300000000e+002	 7.29889e-003
930	 1.3306250000e+002	 6.87229e-003
931	 1.3312500000e+002	 1.35044e-002
932	 1.3318750000e+002	 1.63795e-002
933	 1.3325000000e+002	 1.42319e-002
934	 1.3331250000e+002	 8.16899e-003
935	 1.3337500000e+002	 8.20420e-003
936	 1.3343750000e+002	 5.95486e-003
937	 1.3350000000e+002	 6.64801e-003
938	 1.3356250000e+002	 1.23516e-002
939	 1.3362500000e+002	 1.13075e-002
940	 1.3368750000e+002	 1.11046e-002
941	 1.3375000000e+002	 1.92980e-002
942	 1.3381250000e+002	 1.77719e-002
943	 1.3387500000e+002	 9.42898e-003
944	 1.3393750000e+002	 8.34273e-003
945	 1.3400000000e+002	 6.74084e-003
946	 1.3406250000e+002	 1.94530e-003
947	 1.3412500000e+002	 3.08413e-003
948	 1.3418750000e+002	 6.47306e-003
949	 1.3425000000e+002	 2.12433e-002
950	 1.3431250000e+002	 1.67399e-002
951	 1.3437500000e+002	 2.45499e-002
952	 1.3443750000e+002	 3.18715e-002
953	 1.3450000000e+002	 1.06444e-002
954	 1.3456250000e+002	 4.35803e-003
955	 1.3462500000e+002	 1.04900e-002
956	 1.3468750000e+002	 2.46668e-002
957	 1.3475000000e+002	 1.86571e-002
958	 1.3481250000e+002	 7.10166e-003
959	 1.3487500000e+002	 1.10789e-002
960	 1.3493750000e+002	 1.22737e-002
961	 1.3500000000e+002	 1.30112e-002
962	 1.3506250000e+002	 8.07311e-003
963	 1.3512500000e+002	 1.25820e-002
964	 1.3518750000e+002	 7.72569e-003
965	 1.3525000000e+002	 7.76313e-003
966	 1.3531250000e+002	 9.81521e-003
967	 1.3537500000e+002	 1.92127e-002
968	 1.3543750000e+002	 4.24452e-002
969	 1.3550000000e+002	 1.98216e-002
970	 1.3556250000e+002	 6.33847e-003
971	 1.3562500000e+002	 7.31898e-003
972	 1.3568750000e+002	 1.61641e-002
973	 1.3575000000e+002	 1.15065e-002
974	 1.3581250000e+002	 1.14042e-002
975	 1.3587500000e+002	 6.57048e-003
976	 1.3593750000e+002	 4.82016e-003
977	 1.3600000000e+002	 1.90716e-003
978	 1.3606250000e+002	 6.14834e-003
979	 1.3612500000e+002	 1.13277e-002
980	 1.3618750000e+002	 1.48980e-002
981	 1.3625000000e+002	 1.44904e-002
982	 1.3631250000e+002	 6.40062e-003
983	 1.3637500000e+002	 4.96972e-003
984	 1.3643750000e+002	 1.24706e-002
985	 1.3650000000e+002	 1.06433e-002
986	 1.3656250000e+002	 7.10299e-003
987	 1.3662500000e+002	 5.74655e-003
988	 1.3668750000e+002	 1.04896e-002
989	 1.3675000000e+002	 1.01658e-002
990	 1.3681250000e+002	 7.97228e-003
991	 1.3687500000e+002	 1.65977e-002
992	 1.3693750000e+002	 1.22134e-002
993	 1.3700000000e+002	 1.63179e-002
994	 1.3706250000e+002	 1.40976e-002
995	 1.3712500000e+002	 2.43534e-002
996	 1.3718750000e+002	 1.66935e-002
997	 1.3725000000e+002	 1.23873e-002
998	 1.3731250000e+002	 2.00510e-002
999	 1.3737500000e+002	 2.53711e-002
1000	 1.3743750000e+002	 1.01391e-002
1001	 1.3750000000e+002	 9.88391e-003
1002	 1.3756250000e+002	 1.05107e-002
1003	 1.3762500000e+002	 1.80161e-002
1004	 1.3768750000e+002	 2.80129e-002
1005	 1.3775000000e+002	 1.87301e-002
1006	 1.3781250000e+002	 9.52103e-003
1007	 1.3787500000e+002	 1.22306e-002
1008	 1.3793750000e+002	 8.89931e-003
1009	 1.3800000000e+002	 1.30188e-002
1010	 1.3806250000e+002	 1.01535e-002
1011	 1.3812500000e+002	 1.95162e-002
1012	 1.3818750000e+002	 2.82762e-002
1013	 1.3825000000e+002	 1.04681e-002
1014	 1.3831250000e+002	 6.37351e-003
1015	 1.3837500000e+002	 6.64075e-003
1016	 1.3843750000e+002	 9.44890e-003
1017	 1.3850000000e+002	 2.02247e-002
1018	 1.3856250000e+002	 1.65636e-002
1019	 1.3862500000e+002	 1.67436e-002
1020	 1.3868750000e+002	 1.55562e-002
1021	 1.3875000000e+002	 2.12172e-002
1022	 1.3881250000e+002	 2.04756e-002
1023	 1.3887500000e+002	 1.55718e-002
1024	 1.3893750000e+002	 1.13289e-002
1025	 1.3900000000e+002	 1.95838e-002
1026	 1.3906250000e+002	 2.83386e-002
1027	 1.3912500000e+002	 7.97508e-003
1028	 1.3918750000e+002	 7.55019e-003
1029	 1.3925000000e+002	 1.78938e-002
1030	 1.3931250000e+002	 2.91611e-002
1031	 1.3937500000e+002	 1.28443e-002
1032	 1.3943750000e+002	 1.15674e-002
1033	 1.3950000000e+002	 2.00939e-002
1034	 1.3956250000e+002	 1.13994e-002
1035	 1.3962500000e+002	 7.30320e-003
1036	 1.3968750000e+002	 1.18656e-002
1037	 1.3975000000e+002	 1.95731e-002
1038	 1.3981250000e+002	 1.12537e-002
1039	 1.3987500000e+002	 9.86749e-003
1040	 1.3993750000e+002	 1.22122e-002
1041	 1.4000000000e+002	 2.44168e-002
1042	 1.4006250000e+002	 2.90951e-002
1043	 1.4012500000e+002	 2.55043e-002
1044	 1.4018750000e+002	 1.88627e-002
1045	 1.4025000000e+002	 1.83353e-002
1046	 1.4031250000e+002	 2.79373e-002
1047	 1.4037500000e+002	 2.57919e-002
1048	 1.4043750000e+002	 1.29539e-002
1049	 1.4050000000e+002	 1.46993e-002
1050	 1.4056250000e+002	 1.56752e-002
1051	 1.4062500000e+002	 4.13025e-002
1052	 1.4068750000e+002	 3.88242e-002
1053	 1.4075000000e+002	 2.97057e-002
1054	 1.4081250000e+002	 2.26970e-002
1055	 1.4087500000e+002	 3.02980e-002
1056	 1.4093750000e+002	 2.52923e-002
1057	 1.4100000000e+002	 1.77743e-002
1058	 1.4106250000e+002	 1.67258e-002
1059	 1.4112500000e+002	 8.52752e-003
1060	 1.4118750000e+002	 1.06098e-002
1061	 1.4125000000e+002	 1.17313e-002
1062	 1.4131250000e+002	 1.24360e-002
1063	 1.4137500000e+002	 1.52837e-002
1064	 1.4143750000e+002	 1.71846e-002
1065	 1.4150000000e+002	 1.35817e-002
1066	 1.4156250000e+002	 1.72964e-002
1067	 1.4162500000e+002	 1.42665e-002
1068	 1.4168750000e+002	 1.52116e-002
1069	 1.4175000000e+002	 1.57920e-002
1070	 1.4181250000e+002	 1.04137e-002
1071	 1.4187500000e+002	 1.26642e-002
1072	 1.4193750000e+002	 1.33455e-002
1073	 1.4200000000e+002	 1.00032e-002
1074	 1.4206250000e+002	 2.11196e-002
1075	 1.4212500000e+002	 3.75004e-002
1076	 1.4218750000e+002	 2.13270e-002
1077	 1.4225000000e+002	 1.19738e-002
1078	 1.4231250000e+002	 1.35752e-002
1079	 1.4237500000e+002	 2.01315e-002
1080	 1.4243750000e+002	 7.11185e-003
1081	 1.4250000000e+002	 2.53923e-002
1082	 1.4256250000e+002	 3.92676e-002
1083	 1.4262500000e+002	 1.21141e-002
1084	 1.4268750000e+002	 8.08096e-003
1085	 1.4275000000e+002	 3.23196e-003
1086	 1.4281250000e+002	 2.22174e-003
1087	 1.4287500000e+002	 6.96601e-003
1088	 1.4293750000e+002	 1.46656e-002
1089	 1.4300000000e+002	 2.53863e-002
1090	 1.4306250000e+002	 2.75658e-002
1091	 1.4312500000e+002	 2.27702e-002
1092	 1.4318750000e+002	 1.55422e-002
1093	 1.4325000000e+002	 2.12814e-002
1094	 1.4331250000e+002	 2.26346e-002
1095	 1.4337500000e+002	 1.20669e-002
1096	 1.4343750000e+002	 1.51291e-002
1097	 1.4350000000e+002	 2.52417e-002
1098	 1.4356250000e+002	 1.94304e-002
1099	 1.4362500000e+002	 2.94002e-002
1100	 1.4368750000e+002	 2.19249e-002
1101	 1.4375000000e+002	 2.40998e-002
1102	 1.4381250000e+002	 1.85280e-002
1103	 1.4387500000e+002	 3.92350e-002
1104	 1.4393750000e+002	 3.91653e-002
1105	 1.4400000000e+002	 2.09470e-002
1106	 1.4406250000e+002	 1.61268e-002
1107	 1.4412500000e+002	 2.08044e-002
1108	 1.4418750000e+002	 2.30059e-002
1109	 1.4425000000e+002	 1.10237e-002
1110	 1.4431250000e+002	 1.11115e-002
1111	 1.4437500000e+002	 1.27965e-002
1112	 1.4443750000e+002	 1.78887e-002
1113	 1.4450000000e+002	 1.08810e-002
1114	 1.4456250000e+002	 7.93762e-003
1115	 1.4462500000e+002	 3.23558e-002
1116	 1.4468750000e+002	 1.49045e-002
1117	 1.4475000000e+002	 1.79744e-002
1118	 1.4481250000e+002	 3.53604e-002
1119	 1.4487500000e+002	 1.99122e-002
1120	 1.4493750000e+002	 1.73044e-002
1121	 1.4500000000e+002	 9.14709e-003
1122	 1.4506250000e+002	 6.92018e-003
1123	 1.4512500000e+002	 2.39186e-002
1124	 1.4518750000e+002	 3.23236e-002
1125	 1.4525000000e+002	 1.49558e-002
1126	 1.4531250000e+002	 7.13689e-003
1127	 1.4537500000e+002	 3.24499e-003
1128	 1.4543750000e+002	 9.03126e-003
1129	 1.4550000000e+002	 3.85951e-002
1130	 1.4556250000e+002	 6.64649e-002
1131	 1.4562500000e+002	 3.61692e-002
1132	 1.4568750000e+002	 3.18628e-002
1133	 1.4575000000e+002	 3.66681e-002
1134	 1.4581250000e+002	 7.20331e-002
1135	 1.4587500000e+002	 5.32111e-002
1136	 1.4593750000e+002	 3.44934e-002
1137	 1.4600000000e+002	 4.40815e-002
1138	 1.4606250000e+002	 2.50111e-002
1139	 1.4612500000e+002	 2.26486e-002
1140	 1.4618750000e+002	 1.39447e-002
1141	 1.4625000000e+002	 1.42834e-002
1142	 1.4631250000e+002	 2.55192e-002
1143	 1.4637500000e+002	 3.47521e-002
1144	 1.4643750000e+002	 2.56009e-002
1145	 1.4650000000e+002	 6.52300e-002
1146	 1.4656250000e+002	 9.22019e-002
1147	 1.4662500000e+002	 3.83521e-002
1148	 1.4668750000e+002	 2.56715e-002
1149	 1.4675000000e+002	 3.08923e-002
1150	 1.4681250000e+002	 1.71738e-002
1151	 1.4687500000e+002	 4.41240e-002
1152	 1.4693750000e+002	 4.01889e-002
1153	 1.4700000000e+002	 2.11241e-002
1154	 1.4706250000e+002	 3.55473e-002
1155	 1.4712500000e+002	 3.00472e-002
1156	 1.4718750000e+002	 2.17030e-002
1157	 1.4725000000e+002	 4.46131e-002
1158	 1.4731250000e+002	 5.63680e-002
1159	 1.4737500000e+002	 4.99030e-002
1160	 1.4743750000e+002	 4.57044e-002
1161	 1.4750000000e+002	 6.90130e-002
1162	 1.4756250000e+002	 4.27596e-002
1163	 1.4762500000e+002	 1.02489e-001
1164	 1.4768750000e+002	 8.49185e-002
1165	 1.4775000000e+002	 2.49501e-002
1166	 1.4781250000e+002	 2.73951e-002
1167	 1.4787500000e+002	 3.32037e-002
1168	 1.4793750000e+002	 1.89563e-002
1169	 1.4800000000e+002	 1.27796e-002
1170	 1.4806250000e+002	 4.96168e-002
1171	 1.4812500000e+002	 3.44731e-002
1172	 1.4818750000e+002	 2.23135e-002
1173	 1.4825000000e+002	 2.29747e-002
1174	 1.4831250000e+002	 2.43936e-002
1175	 1.4837500000e+002	 2.27695e-002
1176	 1.4843750000e+002	 1.61814e-002
1177	 1.4850000000e+002	 1.57895e-002
1178	 1.4856250000e+002	 2.08131e-002
1179	 1.4862500000e+002	 3.62281e-002
1180	 1.4868750000e+002	 1.53803e-002
1181	 1.4875000000e+002	 2.11882e-002
1182	 1.4881250000e+002	 1.62835e-002
1183	 1.4887500000e+002	 4.59019e-002
1184	 1.4893750000e+002	 7.43990e-002
1185	 1.4900000000e+002	 5.56802e-002
1186	 1.4906250000e+002	 5.21766e-002
1187	 1.4912500000e+002	 5.58227e-002
1188	 1.4918750000e+002	 3.42723e-002
1189	 1.4925000000e+002	 3.49059e-002
1190	 1.4931250000e+002	 6.07890e-002
1191	 1.4937500000e+002	 5.32193e-002
1192	 1.4943750000e+002	 5.43443e-002
1193	 1.4950000000e+002	 5.11474e-002
1194	 1.4956250000e+002	 5.89771e-002
1195	 1.4962500000e+002	 4.39329e-002
1196	 1.4968750000e+002	 1.44203e-002
1197	 1.4975000000e+002	 2.61196e-002
1198	 1.4981250000e+002	 3.82986e-002
1199	 1.4987500000e+002	 1.88024e-002
1200	 1.4993750000e+002	 2.13996e-002
1201	 1.5000000000e+002	 3.02805e-002
1202	 1.5006250000e+002	 4.20889e-002
1203	 1.5012500000e+002	 4.03294e-002
1204	 1.5018750000e+002	 1.22688e-002
1205	 1.5025000000e+002	 1.65952e-002
1206	 1.5031250000e+002	 2.32997e-002
1207	 1.5037500000e+002	 2.81269e-002
1208	 1.5043750000e+002	 4.35068e-002
1209	 1.5050000000e+002	 8.04869e-002
1210	 1.5056250000e+002	 8.32289e-002
1211	 1.5062500000e+002	 5.70255e-002
1212	 1.5068750000e+002	 4.51477e-002
1213	 1.5075000000e+002	 4.14021e-002
1214	 1.5081250000e+002	 5.54526e-002
1215	 1.5087500000e+002	 8.69678e-002
1216	 1.5093750000e+002	 6.58510e-002
1217	 1.5100000000e+002	 7.19876e-002
1218	 1.5106250000e+002	 8.30040e-002
1219	 1.5112500000e+002	 6.86391e-002
1220	 1.5118750000e+002	 4.69761e-002
1221	 1.5125000000e+002	 3.15728e-002
1222	 1.5131250000e+002	 3.47541e-002
1223	 1.5137500000e+002	 4.22841e-002
1224	 1.5143750000e+002	 5.76805e-002
1225	 1.5150000000e+002	 4.19629e-002
1226	 1.5156250000e+002	 5.19384e-002
1227	 1.5162500000e+002	 6.12656e-002
1228	 1.5168750000e+002	 1.12038e-001
1229	 1.5175000000e+002	 8.77704e-002
1230	 1.5181250000e+002	 1.11852e-001
1231	 1.5187500000e+002	 6.46653e-002
1232	 1.5193750000e+002	 4.10598e-002
1233	 1.5200000000e+002	 4.93725e-002
1234	 1.5206250000e+002	 5.40469e-002
1235	 1.5212500000e+002	 7.24772e-002
1236	 1.5218750000e+002	 4.96298e-002
1237	 1.5225000000e+002	 4.56707e-002
1238	 1.5231250000e+002	 1.05966e-002
1239	 1.5237500000e+002	 1.01182e-002
1240	 1.5243750000e+002	 3.41152e-002
1241	 1.5250000000e+002	 5.66218e-002
1242	 1.5256250000e+002	 2.77599e-002
1243	 1.5262500000e+002	 5.31028e-002
1244	 1.5268750000e+002	 2.63620e-002
1245	 1.5275000000e+002	 3.33934e-002
1246	 1.5281250000e+002	 7.52691e-002
1247	 1.5287500000e+002	 1.07159e-001
1248	 1.5293750000e+002	 1.50864e-001
1249	 1.5300000000e+002	 2.12232e-001
1250	 1.5306250000e+002	 1.33829e-001
1251	 1.5312500000e+002	 8.08820e-002
1252	 1.5318750000e+002	 6.15233e-002
1253	 1.5325000000e+002	 7.08314e-002
1254	 1.5331250000e+002	 1.26378e-001
1255	 1.5337500000e+002	 7.16582e-002
1256	 1.5343750000e+002	 4.43852e-002
1257	 1.5350000000e+002	 3.35607e-002
1258	 1.5356250000e+002	 4.40247e-002
1259	 1.5362500000e+002	 4.65026e-002
1260	 1.5368750000e+002	 2.22860e-002
1261	 1.5375000000e+002	 8.42500e-002
1262	 1.5381250000e+002	 1.57929e-001
1263	 1.5387500000e+002	 1.67132e-001
1264	 1.5393750000e+002	 1.33040e-001
1265	 1.5400000000e+002	 1.05989e-001
1266	 1.5406250000e+002	 8.69133e-002
1267	 1.5412500000e+002	 6.19273e-002
1268	 1.5418750000e+002	 4.69193e-002
1269	 1.5425000000e+002	 8.35268e-002
1270	 1.5431250000e+002	 9.22762e-002
1271	 1.5437500000e+002	 1.07616e-001
1272	 1.5443750000e+002	 1.89420e-001
1273	 1.5450000000e+002	 1.31574e-001
1274	 1.5456250000e+002	 1.38907e-001
1275	 1.5462500000e+002	 1.72958e-001
1276	 1.5468750000e+002	 7.35805e-002
1277	 1.5475000000e+002	 2.89070e-002
1278	 1.5481250000e+002	 4.42002e-002
1279	 1.5487500000e+002	 8.71249e-002
1280	 1.5493750000e+002	 1.01638e-001
1281	 1.5500000000e+002	 9.83486e-002
1282	 1.5506250000e+002	 8.61304e-002
1283	 1.5512500000e+002	 1.20033e-001
1284	 1.5518750000e+002	 2.04127e-001
1285	 1.5525000000e+002	 1.48583e-001
1286	 1.5531250000e+002	 1.98179e-001
1287	 1.5537500000e+002	 3.75432e-001
1288	 1.5543750000e+002	 1.92906e-001
1289	 1.5550000000e+002	 9.75371e-002
1290	 1.5556250000e+002	 2.66436e-001
1291	 1.5562500000e+002	 1.95042e-001
1292	 1.5568750000e+002	 1.80606e-001
1293	 1.5575000000e+002	 2.18187e-001
1294	 1.5581250000e+002	 3.41041e-001
1295	 1.5587500000e+002	 2.76346e-001
1296	 1.5593750000e+002	 9.79122e-002
1297	 1.5600000000e+002	 9.08545e-002
1298	 1.5606250000e+002	 1.95903e-001
1299	 1.5612500000e+002	 2.72371e-001
1300	 1.5618750000e+002	 1.43745e-001
1301	 1.5625000000e+002	 5.94039e-002
1302	 1.5631250000e+002	 1.63385e-001
1303	 1.5637500000e+002	 3.37562e-001
1304	 1.5643750000e+002	 2.88525e-001
1305	 1.5650000000e+002	 9.90790e-002
1306	 1.5656250000e+002	 8.38668e-002
1307	 1.5662500000e+002	 1.75087e-001
1308	 1.5668750000e+002	 1.91567e-001
1309	 1.5675000000e+002	 1.33041e-001
1310	 1.5681250000e+002	 1.69494e-001
1311	 1.5687500000e+002	 2.62481e-001
1312	 1.5693750000e+002	 4.08344e-001
1313	 1.5700000000e+002	 5.42202e-001
1314	 1.5706250000e+002	 2.47412e-001
1315	 1.5712500000e+002	 1.66062e-001
1316	 1.5718750000e+002	 1.08153e-001
1317	 1.5725000000e+002	 1.00370e-001
1318	 1.5731250000e+002	 1.24417e-001
1319	 1.5737500000e+002	 1.22152e-001
1320	 1.5743750000e+002	 1.26923e-001
1321	 1.5750000000e+002	 1.66021e-001
1322	 1.5756250000e+002	 2.68574e-001
1323	 1.5762500000e+002	 3.54077e-001
1324	 1.5768750000e+002	 2.65203e-001
1325	 1.5775000000e+002	 2.82871e-001
1326	 1.5781250000e+002	 3.56702e-001
1327	 1.5787500000e+002	 2.48588e-001
1328	 1.5793750000e+002	 2.80284e-001
1329	 1.5800000000e+002	 2.52736e-001
1330	 1.5806250000e+002	 1.16237e-001
1331	 1.5812500000e+002	 1.46405e-001
1332	 1.5818750000e+002	 3.67102e-001
1333	 1.5825000000e+002	 3.17764e-001
1334	 1.5831250000e+002	 2.98266e-001
1335	 1.5837500000e+002	 1.55617e-001
1336	 1.5843750000e+002	 1.18308e-001
1337	 1.5850000000e+002	 1.23370e-001
1338	 1.5856250000e+002	 1.70881e-001
1339	 1.5862500000e+002	 1.43948e-001
1340	 1.5868750000e+002	 2.90458e-001
1341	 1.5875000000e+002	 3.86617e-001
1342	 1.5881250000e+002	 3.64932e-001
1343	 1.5887500000e+002	 4.97095e-001
1344	 1.5893750000e+002	 4.33163e-001
1345	 1.5900000000e+002	 7.05407e-001
1346	 1.5906250000e+002	 8.84659e-001
1347	 1.5912500000e+002	 5.64899e-001
1348	 1.5918750000e+002	 4.33998e-001
1349	 1.5925000000e+002	 4.63791e-001
1350	 1.5931250000e+002	 5.81028e-001
1351	 1.5937500000e+002	 3.57334e-001
1352	 1.5943750000e+002	 4.11465e-001
1353	 1.5950000000e+002	 4.47419e-001
1354	 1.5956250000e+002	 1.50725e-001
1355	 1.5962500000e+002	 2.32942e-001
1356	 1.5968750000e+002	 8.68275e-001
1357	 1.5975000000e+002	 5.32117e-001
1358	 1.5981250000e+002	 1.41657e-001
1359	 1.5987500000e+002	 1.41984e-001
1360	 1.5993750000e+002	 2.17750e-001
1361	 1.6000000000e+002	 3.81029e-001
1362	 1.6006250000e+002	 7.05067e-001
1363	 1.6012500000e+002	 1.44522e+000
1364	 1.6018750000e+002	 1.43326e+000
1365	 1.6025000000e+002	 8.30413e-001
1366	 1.6031250000e+002	 1.09181e+000
1367	 1.6037500000e+002	 1.58279e+000
1368	 1.6043750000e+002	 8.33185e-001
1369	 1.6050000000e+002	 3.69948e-001
1370	 1.6056250000e+002	 3.94381e-001
1371	 1.6062500000e+002	 6.24326e-001
1372	 1.6068750000e+002	 5.42173e-001
1373	 1.6075000000e+002	 6.99929e-001
1374	 1.6081250000e+002	 1.13534e+000
1375	 1.6087500000e+002	 1.04561e+000
1376	 1.6093750000e+002	 9.39853e-001
1377	 1.6100000000e+002	 9.72490e-001
1378	 1.6106250000e+002	 4.43770e-001
1379	 1.6112500000e+002	 7.87071e-001
1380	 1.6118750000e+002	 9.66532e-001
1381	 1.6125000000e+002	 3.57356e-001
1382	 1.6131250000e+002	 3.64739e-001
1383	 1.6137500000e+002	 9.62034e-001
1384	 1.6143750000e+002	 1.31359e+000
1385	 1.6150000000e+002	 1.10400e+000
1386	 1.6156250000e+002	 5.12874e-001
1387	 1.6162500000e+002	 7.50370e-001
1388	 1.6168750000e+002	 9.39552e-001
1389	 1.6175000000e+002	 5.67878e-001
1390	 1.6181250000e+002	 3.65264e-001
1391	 1.6187500000e+002	 7.23506e-001
1392	 1.6193750000e+002	 1.17254e+000
1393	 1.6200000000e+002	 8.00553e-001
1394	 1.6206250000e+002	 2.81570e-001
1395	 1.6212500000e+002	 5.03470e-001
1396	 1.6218750000e+002	 7.53642e-001
1397	 1.6225000000e+002	 1.64867e+000
1398	 1.6231250000e+002	 1.73984e+000
1399	 1.6237500000e+002	 1.02645e+000
1400	 1.6243750000e+002	 6.52970e-001
1401	 1.6250000000e+002	 5.62299e-001
1402	 1.6256250000e+002	 1.01832e+000
1403	 1.6262500000e+002	 1.19020e+000
1404	 1.6268750000e+002	 4.56008e-001
1405	 1.6275000000e+002	 3.60346e-001
1406	 1.6281250000e+002	 3.42436e-001
1407	 1.6287500000e+002	 1.71965e-001
1408	 1.6293750000e+002	 6.56615e-001
1409	 1.6300000000e+002	 9.77751e-001
1410	 1.6306250000e+002	 6.12222e-001
1411	 1.6312500000e+002	 2.72366e-001
1412	 1.6318750000e+002	 5.14219e-001
1413	 1.6325000000e+002	 4.28341e-001
1414	 1.6331250000e+002	 5.31945e-001
1415	 1.6337500000e+002	 4.63901e-001
1416	 1.6343750000e+002	 5.44579e-001
1417	 1.6350000000e+002	 5.41503e-001
1418	 1.6356250000e+002	 2.31078e-001
1419	 1.6362500000e+002	 2.30963e-001
1420	 1.6368750000e+002	 5.28713e-001
1421	 1.6375000000e+002	 8.04684e-001
1422	 1.6381250000e+002	 6.73811e-001
1423	 1.6387500000e+002	 3.59806e-001
1424	 1.6393750000e+002	 2.22547e-001
1425	 1.6400000000e+002	 5.37266e-001
1426	 1.6406250000e+002	 6.58251e-001
1427	 1.6412500000e+002	 4.26874e-001
1428	 1.6418750000e+002	 3.87951e-001
1429	 1.6425000000e+002	 5.05346e-001
1430	 1.6431250000e+002	 6.83279e-001
1431	 1.6437500000e+002	 4.51010e-001
1432	 1.6443750000e+002	 2.72367e-001
1433	 1.6450000000e+002	 1.94196e-001
1434	 1.6456250000e+002	 3.31433e-001
1435	 1.6462500000e+002	 7.25858e-001
1436	 1.6468750000e+002	 6.68388e-001
1437	 1.6475000000e+002	 3.98476e-001
1438	 1.6481250000e+002	 3.26280e-001
1439	 1.6487500000e+002	 3.11716e-001
1440	 1.6493750000e+002	 3.64505e-001
1441	 1.6500000000e+002	 2.50228e-001
1442	 1.6506250000e+002	 2.40652e-001
1443	 1.6512500000e+002	 2.31211e-001
1444	 1.6518750000e+002	 2.84416e-001
1445	 1.6525000000e+002	 3.12457e-001
1446	 1.6531250000e+002	 4.71266e-001
1447	 1.6537500000e+002	 5.93253e-001
1448	 1.6543750000e+002	 3.41027e-001
1449	 1.6550000000e+002	 3.89625e-001
1450	 1.6556250000e+002	 2.18451e-001
1451	 1.6562500000e+002	 2.04314e-001
1452	 1.6568750000e+002	 1.04027e-001
1453	 1.6575000000e+002	 1.43105e-001
1454	 1.6581250000e+002	 2.02955e-001
1455	 1.6587500000e+002	 2.55867e-001
1456	 1.6593750000e+002	 6.88115e-002
1457	 1.6600000000e+002	 1.46117e-001
1458	 1.6606250000e+002	 2.15682e-001
1459	 1.6612500000e+002	 3.33820e-001
1460	 1.6618750000e+002	 2.39308e-001
1461	 1.6625000000e+002	 1.13790e-001
1462	 1.6631250000e+002	 2.56435e-001
1463	 1.6637500000e+002	 2.60085e-001
1464	 1.6643750000e+002	 2.26410e-001
1465	 1.6650000000e+002	 1.43946e-001
1466	 1.6656250000e+002	 1.24688e-001
1467	 1.6662500000e+002	 1.13585e-001
1468	 1.6668750000e+002	 1.44772e-001
1469	 1.6675000000e+002	 1.41449e-001
1470	 1.6681250000e+002	 1.56378e-001
1471	 1.6687500000e+002	 2.39219e-001
1472	 1.6693750000e+002	 1.35876e-001
1473	 1.6700000000e+002	 1.29307e-001
1474	 1.6706250000e+002	 1.40455e-001
1475	 1.6712500000e+002	 1.53575e-001
1476	 1.6718750000e+002	 1.55341e-001
1477	 1.6725000000e+002	 1.29258e-001
1478	 1.6731250000e+002	 1.56909e-001
1479	 1.6737500000e+002	 1.10796e-001
1480	 1.6743750000e+002	 1.33280e-001
1481	 1.6750000000e+002	 1.90725e-001
1482	 1.6756250000e+002	 1.22831e-001
1483	 1.6762500000e+002	 6.31147e-002
1484	 1.6768750000e+002	 1.06056e-001
1485	 1.6775000000e+002	 1.54852e-001
1486	 1.6781250000e+002	 1.23027e-001
1487	 1.6787500000e+002	 1.29028e-001
1488	 1.6793750000e+002	 1.44014e-001
1489	 1.6800000000e+002	 1.52201e-001
1490	 1.6806250000e+002	 1.29066e-001
1491	 1.6812500000e+002	 1.47208e-001
1492	 1.6818750000e+002	 2.44976e-001
1493	 1.6825000000e+002	 2.16192e-001
1494	 1.6831250000e+002	 1.10633e-001
1495	 1.6837500000e+002	 8.22611e-002
1496	 1.6843750000e+002	 1.05811e-001
1497	 1.6850000000e+002	 2.08121e-001
1498	 1.6856250000e+002	 1.38886e-001
1499	 1.6862500000e+002	 1.76632e-001
1500	 1.6868750000e+002	 7.55747e-002
1501	 1.6875000000e+002	 7.96044e-002
1502	 1.6881250000e+002	 1.26180e-001
1503	 1.6887500000e+002	 1.67616e-001
1504	 1.6893750000e+002	 3.10690e-001
1505	 1.6900000000e+002	 1.35174e-001
1506	 1.6906250000e+002	 1.01603e-001
1507	 1.6912500000e+002	 1.32002e-001
1508	 1.6918750000e+002	 1.61531e-001
1509	 1.6925000000e+002	 1.99752e-001
1510	 1.6931250000e+002	 3.57021e-001
1511	 1.6937500000e+002	 2.33854e-001
1512	 1.6943750000e+002	 6.53272e-002
1513	 1.6950000000e+002	 9.66242e-002
1514	 1.6956250000e+002	 1.27607e-001
1515	 1.6962500000e+002	 1.46658e-001
1516	 1.6968750000e+002	 1.02953e-001
1517	 1.6975000000e+002	 1.19346e-001
1518	 1.6981250000e+002	 1.75643e-001
1519	 1.6987500000e+002	 2.97340e-001
1520	 1.6993750000e+002	 2.31504e-001
1521	 1.7000000000e+002	 1.27454e-001
1522	 1.7006250000e+002	 6.79074e-002
1523	 1.7012500000e+002	 1.05213e-001
1524	 1.7018750000e+002	 8.49251e-002
1525	 1.7025000000e+002	 5.19260e-002
1526	 1.7031250000e+002	 4.06798e-002
1527	 1.7037500000e+002	 3.44632e-002
1528	 1.7043750000e+002	 5.95455e-002
1529	 1.7050000000e+002	 7.70229e-002
1530	 1.7056250000e+002	 7.58689e-002
1531	 1.7062500000e+002	 1.21540e-001
1532	 1.7068750000e+002	 1.28512e-001
1533	 1.7075000000e+002	 6.84190e-002
1534	 1.7081250000e+002	 6.12516e-002
1535	 1.7087500000e+002	 5.41338e-002
1536	 1.7093750000e+002	 9.55130e-002
1537	 1.7100000000e+002	 6.35696e-002
1538	 1.7106250000e+002	 7.45988e-002
1539	 1.7112500000e+002	 1.28895e-001
1540	 1.7118750000e+002	 1.62365e-001
1541	 1.7125000000e+002	 1.22189e-001
1542	 1.7131250000e+002	 7.17415e-002
1543	 1.7137500000e+002	 6.52766e-002
1544	 1.7143750000e+002	 6.37616e-002
1545	 1.7150000000e+002	 3.08264e-002
1546	 1.7156250000e+002	 4.13774e-002
1547	 1.7162500000e+002	 3.58928e-002
1548	 1.7168750000e+002	 5.48642e-002
1549	 1.7175000000e+002	 3.86004e-002
1550	 1.7181250000e+002	 4.13219e-002
1551	 1.7187500000e+002	 3.64272e-002
1552	 1.7193750000e+002	 3.08402e-002
1553	 1.7200000000e+002	 4.52240e-002
1554	 1.7206250000e+002	 6.39539e-002
1555	 1.7212500000e+002	 6.95622e-002
1556	 1.7218750000e+002	 1.23205e-001
1557	 1.7225000000e+002	 1.32019e-001
1558	 1.7231250000e+002	 7.61603e-002
1559	 1.7237500000e+002	 9.48914e-002
1560	 1.7243750000e+002	 5.25284e-002
1561	 1.7250000000e+002	 2.47253e-002
1562	 1.7256250000e+002	 6.51028e-002
1563	 1.7262500000e+002	 8.56003e-002
1564	 1.7268750000e+002	 8.30313e-002
1565	 1.7275000000e+002	 7.35019e-002
1566	 1.7281250000e+002	 6.76011e-002
1567	 1.7287500000e+002	 7.49266e-002
1568	 1.7293750000e+002	 3.27824e-002
1569	 1.7300000000e+002	 2.09294e-002
1570	 1.7306250000e+002	 4.00817e-002
1571	 1.7312500000e+002	 7.75116e-002
1572	 1.7318750000e+002	 5.36271e-002
1573	 1.7325000000e+002	 9.24213e-002
1574	 1.7331250000e+002	 7.11698e-002
1575	 1.7337500000e+002	 5.71879e-002
1576	 1.7343750000e+002	 5.44258e-002
1577	 1.7350000000e+002	 2.06610e-002
1578	 1.7356250000e+002	 3.26505e-002
1579	 1.7362500000e+002	 3.73290e-002
1580	 1.7368750000e+002	 9.01352e-002
1581	 1.7375000000e+002	 8.80690e-002
1582	 1.7381250000e+002	 7.93819e-002
1583	 1.7387500000e+002	 5.92681e-002
1584	 1.7393750000e+002	 3.37226e-002
1585	 1.7400000000e+002	 2.54086e-002
1586	 1.7406250000e+002	 2.22065e-002
1587	 1.7412500000e+002	 1.94483e-002
1588	 1.7418750000e+002	 2.86847e-002
1589	 1.7425000000e+002	 2.57616e-002
1590	 1.7431250000e+002	 3.50535e-002
1591	 1.7437500000e+002	 5.25018e-002
1592	 1.7443750000e+002	 4.27296e-002
1593	 1.7450000000e+002	 4.97667e-002
1594	 1.7456250000e+002	 4.81848e-002
1595	 1.7462500000e+002	 1.77500e-002
1596	 1.7468750000e+002	 3.46080e-002
1597	 1.7475000000e+002	 7.24199e-002
1598	 1.7481250000e+002	 1.06686e-001
1599	 1.7487500000e+002	 8.07789e-002
1600	 1.7493750000e+002	 2.82099e-002
1601	 1.7500000000e+002	 3.20052e-002
1602	 1.7506250000e+002	 7.42779e-002
1603	 1.7512500000e+002	 6.97872e-002
1604	 1.7518750000e+002	 4.42270e-002
1605	 1.7525000000e+002	 9.89010e-002
1606	 1.7531250000e+002	 7.52753e-002
1607	 1.7537500000e+002	 2.81249e-002
1608	 1.7543750000e+002	 2.76086e-002
1609	 1.7550000000e+002	 1.44626e-002
1610	 1.7556250000e+002	 4.32980e-002
1611	 1.7562500000e+002	 5.52826e-002
1612	 1.7568750000e+002	 1.39388e-002
1613	 1.7575000000e+002	 8.94953e-003
1614	 1.7581250000e+002	 1.11621e-002
1615	 1.7587500000e+002	 3.25325e-002
1616	 1.7593750000e+002	 3.81891e-002
1617	 1.7600000000e+002	 3.62606e-002
1618	 1.7606250000e+002	 6.25710e-002
1619	 1.7612500000e+002	 3.95838e-002
1620	 1.7618750000e+002	 2.56583e-002
1621	 1.7625000000e+002	 4.30987e-002
1622	 1.7631250000e+002	 4.79085e-002
1623	 1.7637500000e+002	 2.14454e-002
1624	 1.7643750000e+002	 4.86361e-002
1625	 1.7650000000e+002	 7.16874e-002
1626	 1.7656250000e+002	 3.38977e-002
1627	 1.7662500000e+002	 1.88081e-002
1628	 1.7668750000e+002	 1.54051e-002
1629	 1.7675000000e+002	 1.64984e-002
1630	 1.7681250000e+002	 3.08749e-002
1631	 1.7687500000e+002	 2.73810e-002
1632	 1.7693750000e+002	 4.30686e-002
1633	 1.7700000000e+002	 6.54740e-002
1634	 1.7706250000e+002	 3.94118e-002
1635	 1.7712500000e+002	 3.66685e-002
1636	 1.7718750000e+002	 3.61346e-002
1637	 1.7725000000e+002	 2.50735e-002
1638	 1.7731250000e+002	 1.67444e-002
1639	 1.7737500000e+002	 2.03797e-002
1640	 1.7743750000e+002	 4.18871e-002
1641	 1.7750000000e+002	 2.96658e-002
1642	 1.7756250000e+002	 9.25163e-003
1643	 1.7762500000e+002	 1.12396e-002
1644	 1.7768750000e+002	 1.40197e-002
1645	 1.7775000000e+002	 3.75746e-002
1646	 1.7781250000e+002	 4.24000e-002
1647	 1.7787500000e+002	 3.74137e-002
1648	 1.7793750000e+002	 3.11096e-002
1649	 1.7800000000e+002	 2.80924e-002
1650	 1.7806250000e+002	 3.02171e-002
1651	 1.7812500000e+002	 5.57489e-002
1652	 1.7818750000e+002	 5.13058e-002
1653	 1.7825000000e+002	 4.93025e-002
1654	 1.7831250000e+002	 4.03267e-002
1655	 1.7837500000e+002	 6.02328e-002
1656	 1.7843750000e+002	 5.96704e-002
1657	 1.7850000000e+002	 6.75716e-002
1658	 1.7856250000e+002	 2.83693e-002
1659	 1.7862500000e+002	 5.94181e-002
1660	 1.7868750000e+002	 3.83675e-002
1661	 1.7875000000e+002	 3.35537e-002
1662	 1.7881250000e+002	 4.39948e-002
1663	 1.7887500000e+002	 3.69048e-002
1664	 1.7893750000e+002	 2.75473e-002
1665	 1.7900000000e+002	 2.27369e-002
1666	 1.7906250000e+002	 1.55111e-002
1667	 1.7912500000e+002	 2.54413e-002
1668	 1.7918750000e+002	 2.09554e-002
1669	 1.7925000000e+002	 5.16341e-002
1670	 1.7931250000e+002	 3.76272e-002
1671	 1.7937500000e+002	 1.48183e-002
1672	 1.7943750000e+002	 2.15888e-002
1673	 1.7950000000e+002	 4.98490e-002
1674	 1.7956250000e+002	 3.82986e-002
1675	 1.7962500000e+002	 4.04465e-002
1676	 1.7968750000e+002	 2.45441e-002
1677	 1.7975000000e+002	 1.43037e-002
1678	 1.7981250000e+002	 2.17273e-002
1679	 1.7987500000e+002	 2.46406e-002
1680	 1.7993750000e+002	 2.53699e-002
1681	 1.8000000000e+002	 1.62725e-002
1682	 1.8006250000e+002	 2.07770e-002
1683	 1.8012500000e+002	 1.02652e-002
1684	 1.8018750000e+002	 9.63370e-003
1685	 1.8025000000e+002	 3.78367e-002
1686	 1.8031250000e+002	 2.39966e-002
1687	 1.8037500000e+002	 2.56503e-002
1688	 1.8043750000e+002	 1.01485e-001
1689	 1.8050000000e+002	 7.11978e-002
1690	 1.8056250000e+002	 3.50592e-002
1691	 1.8062500000e+002	 5.13710e-002
1692	 1.8068750000e+002	 9.33683e-002
1693	 1.8075000000e+002	 8.63422e-002
1694	 1.8081250000e+002	 4.89020e-002
1695	 1.8087500000e+002	 2.30340e-002
1696	 1.8093750000e+002	 2.31056e-002
1697	 1.8100000000e+002	 3.15005e-002
1698	 1.8106250000e+002	 4.55223e-002
1699	 1.8112500000e+002	 4.06606e-002
1700	 1.8118750000e+002	 9.24751e-003
1701	 1.8125000000e+002	 1.11605e-002
1702	 1.8131250000e+002	 3.31659e-002
1703	 1.8137500000e+002	 3.84103e-002
1704	 1.8143750000e+002	 2.76721e-002
1705	 1.8150000000e+002	 6.92018e-002
1706	 1.8156250000e+002	 6.38517e-002
1707	 1.8162500000e+002	 2.22419e-002
1708	 1.8168750000e+002	 3.31552e-002
1709	 1.8175000000e+002	 6.18041e-002
1710	 1.8181250000e+002	 2.30915e-002
1711	 1.8187500000e+002	 3.84908e-002
1712	 1.8193750000e+002	 1.02296e-001
1713	 1.8200000000e+002	 7.69276e-002
1714	 1.8206250000e+002	 3.83913e-002
1715	 1.8212500000e+002	 6.47383e-002
1716	 1.8218750000e+002	 2.61927e-002
1717	 1.8225000000e+002	 1.97179e-002
1718	 1.8231250000e+002	 3.15649e-002
1719	 1.8237500000e+002	 2.26268e-002
1720	 1.8243750000e+002	 1.90845e-002
1721	 1.8250000000e+002	 1.64326e-002
1722	 1.8256250000e+002	 1.11665e-002
1723	 1.8262500000e+002	 4.48558e-002
1724	 1.8268750000e+002	 3.99280e-002
1725	 1.8275000000e+002	 2.71661e-002
1726	 1.8281250000e+002	 2.41683e-002
1727	 1.8287500000e+002	 1.95759e-002
1728	 1.8293750000e+002	 2.88955e-002
1729	 1.8300000000e+002	 5.10983e-002
1730	 1.8306250000e+002	 3.80949e-002
1731	 1.8312500000e+002	 2.37639e-002
1732	 1.8318750000e+002	 3.65955e-002
1733	 1.8325000000e+002	 4.04264e-002
1734	 1.8331250000e+002	 4.04593e-002
1735	 1.8337500000e+002	 1.24426e-002
1736	 1.8343750000e+002	 3.63715e-002
1737	 1.8350000000e+002	 4.31760e-002
1738	 1.8356250000e+002	 4.94547e-002
1739	 1.8362500000e+002	 3.07234e-002
1740	 1.8368750000e+002	 5.09844e-002
1741	 1.8375000000e+002	 3.96084e-002
1742	 1.8381250000e+002	 5.28643e-002
1743	 1.8387500000e+002	 2.81468e-002
1744	 1.8393750000e+002	 2.35254e-002
1745	 1.8400000000e+002	 4.74823e-002
1746	 1.8406250000e+002	 3.28324e-002
1747	 1.8412500000e+002	 6.02665e-002
1748	 1.8418750000e+002	 7.13793e-002
1749	 1.8425000000e+002	 2.27926e-002
1750	 1.8431250000e+002	 2.87901e-002
1751	 1.8437500000e+002	 3.99774e-002
1752	 1.8443750000e+002	 4.18188e-002
1753	 1.8450000000e+002	 1.36384e-002
1754	 1.8456250000e+002	 2.17441e-002
1755	 1.8462500000e+002	 4.88872e-002
1756	 1.8468750000e+002	 3.35411e-002
1757	 1.8475000000e+002	 2.52216e-002
1758	 1.8481250000e+002	 3.66943e-002
1759	 1.8487500000e+002	 3.81800e-002
1760	 1.8493750000e+002	 1.03689e-002
1761	 1.8500000000e+002	 8.54110e-003
1762	 1.8506250000e+002	 1.50096e-002
1763	 1.8512500000e+002	 7.10610e-003
1764	 1.8518750000e+002	 1.16772e-002
1765	 1.8525000000e+002	 1.18310e-002
1766	 1.8531250000e+002	 1.94517e-002
1767	 1.8537500000e+002	 3.35676e-002
1768	 1.8543750000e+002	 3.85608e-002
1769	 1.8550000000e+002	 3.61629e-002
1770	 1.8556250000e+002	 2.84161e-002
1771	 1.8562500000e+002	 1.62585e-002
1772	 1.8568750000e+002	 1.16457e-002
1773	 1.8575000000e+002	 2.95491e-002
1774	 1.8581250000e+002	 2.99696e-002
1775	 1.8587500000e+002	 2.48457e-002
1776	 1.8593750000e+002	 2.18938e-002
1777	 1.8600000000e+002	 3.39177e-002
1778	 1.8606250000e+002	 2.42108e-002
1779	 1.8612500000e+002	 1.13480e-002
1780	 1.8618750000e+002	 1.89534e-002
1781	 1.8625000000e+002	 4.47133e-002
1782	 1.8631250000e+002	 5.62776e-002
1783	 1.8637500000e+002	 7.17248e-002
1784	 1.8643750000e+002	 2.69412e-002
1785	 1.8650000000e+002	 1.77831e-002
1786	 1.8656250000e+002	 3.13057e-002
1787	 1.8662500000e+002	 3.47541e-002
1788	 1.8668750000e+002	 6.91335e-002
1789	 1.8675000000e+002	 6.38243e-002
1790	 1.8681250000e+002	 1.39474e-002
1791	 1.8687500000e+002	 1.88385e-002
1792	 1.8693750000e+002	 2.17570e-002
1793	 1.8700000000e+002	 1.21610e-002
1794	 1.8706250000e+002	 7.85241e-003
1795	 1.8712500000e+002	 4.18695e-002
1796	 1.8718750000e+002	 4.98907e-002
1797	 1.8725000000e+002	 1.96252e-002
1798	 1.8731250000e+002	 3.22864e-002
1799	 1.8737500000e+002	 3.54479e-002
1800	 1.8743750000e+002	 1.39847e-002
1801	 1.8750000000e+002	 1.09498e-002
1802	 1.8756250000e+002	 6.90780e-003
1803	 1.8762500000e+002	 1.22409e-002
1804	 1.8768750000e+002	 2.17093e-002
1805	 1.8775000000e+002	 2.24095e-002
1806	 1.8781250000e+002	 3.19306e-002
1807	 1.8787500000e+002	 3.42940e-002
1808	 1.8793750000e+002	 2.56394e-002
1809	 1.8800000000e+002	 2.28385e-002
1810	 1.8806250000e+002	 3.09947e-002
1811	 1.8812500000e+002	 4.20895e-002
1812	 1.8818750000e+002	 8.99412e-003
1813	 1.8825000000e+002	 2.88264e-002
1814	 1.8831250000e+002	 3.15336e-002
1815	 1.8837500000e+002	 2.08090e-002
1816	 1.8843750000e+002	 2.36907e-002
1817	 1.8850000000e+002	 1.06019e-002
1818	 1.8856250000e+002	 7.27167e-003
1819	 1.8862500000e+002	 1.74873e-002
1820	 1.8868750000e+002	 3.47429e-002
1821	 1.8875000000e+002	 2.08649e-002
1822	 1.8881250000e+002	 2.06948e-002
1823	 1.8887500000e+002	 2.38796e-002
1824	 1.8893750000e+002	 2.66437e-002
1825	 1.8900000000e+002	 1.86356e-002
1826	 1.8906250000e+002	 1.53140e-002
1827	 1.8912500000e+002	 2.86823e-002
1828	 1.8918750000e+002	 2.12486e-002
1829	 1.8925000000e+002	 1.87371e-002
1830	 1.8931250000e+002	 1.85405e-002
1831	 1.8937500000e+002	 4.10341e-002
1832	 1.8943750000e+002	 3.86526e-002
1833	 1.8950000000e+002	 6.63500e-002
1834	 1.8956250000e+002	 6.90293e-002
1835	 1.8962500000e+002	 3.95107e-002
1836	 1.8968750000e+002	 8.82570e-003
1837	 1.8975000000e+002	 1.13387e-002
1838	 1.8981250000e+002	 7.01838e-003
1839	 1.8987500000e+002	 9.84427e-003
1840	 1.8993750000e+002	 2.30776e-002
1841	 1.9000000000e+002	 2.05277e-002
1842	 1.9006250000e+002	 1.92201e-002
1843	 1.9012500000e+002	 2.54575e-002
1844	 1.9018750000e+002	 1.76874e-002
1845	 1.9025000000e+002	 4.78025e-002
1846	 1.9031250000e+002	 5.20248e-002
1847	 1.9037500000e+002	 7.46087e-002
1848	 1.9043750000e+002	 7.05881e-002
1849	 1.9050000000e+002	 2.50131e-002
1850	 1.9056250000e+002	 3.17024e-002
1851	 1.9062500000e+002	 3.60595e-002
1852	 1.9068750000e+002	 3.50571e-002
1853	 1.9075000000e+002	 3.35825e-002
1854	 1.9081250000e+002	 2.76985e-002
1855	 1.9087500000e+002	 3.07494e-002
1856	 1.9093750000e+002	 5.24535e-002
1857	 1.9100000000e+002	 9.50958e-002
1858	 1.9106250000e+002	 4.14079e-002
1859	 1.9112500000e+002	 2.64183e-002
1860	 1.9118750000e+002	 3.94760e-002
1861	 1.9125000000e+002	 2.19700e-002
1862	 1.9131250000e+002	 3.34568e-002
1863	 1.9137500000e+002	 2.82860e-002
1864	 1.9143750000e+002	 3.67140e-002
1865	 1.9150000000e+002	 3.01583e-002
1866	 1.9156250000e+002	 2.22860e-002
1867	 1.9162500000e+002	 1.97441e-002
1868	 1.9168750000e+002	 3.90202e-002
1869	 1.9175000000e+002	 3.09601e-002
1870	 1.9181250000e+002	 2.36975e-002
1871	 1.9187500000e+002	 3.53483e-002
1872	 1.9193750000e+002	 2.68387e-002
1873	 1.9200000000e+002	 2.32316e-002
1874	 1.9206250000e+002	 2.70703e-002
1875	 1.9212500000e+002	 2.20721e-002
1876	 1.9218750000e+002	 6.34993e-002
1877	 1.9225000000e+002	 7.38214e-002
1878	 1.9231250000e+002	 4.20327e-002
1879	 1.9237500000e+002	 2.78778e-002
1880	 1.9243750000e+002	 4.67344e-002
1881	 1.9250000000e+002	 5.12115e-002
1882	 1.9256250000e+002	 3.82381e-002
1883	 1.9262500000e+002	 2.12440e-002
1884	 1.9268750000e+002	 1.67607e-002
1885	 1.9275000000e+002	 1.99354e-002
1886	 1.9281250000e+002	 4.22237e-002
1887	 1.9287500000e+002	 2.67338e-002
1888	 1.9293750000e+002	 1.82372e-002
1889	 1.9300000000e+002	 1.64337e-002
1890	 1.9306250000e+002	 1.22488e-002
1891	 1.9312500000e+002	 2.38898e-002
1892	 1.9318750000e+002	 2.43996e-002
1893	 1.9325000000e+002	 1.79194e-002
1894	 1.9331250000e+002	 3.94479e-002
1895	 1.9337500000e+002	 3.70223e-002
1896	 1.9343750000e+002	 1.69513e-002
1897	 1.9350000000e+002	 3.78333e-002
1898	 1.9356250000e+002	 2.76028e-002
1899	 1.9362500000e+002	 3.56989e-002
1900	 1.9368750000e+002	 4.08283e-002
1901	 1.9375000000e+002	 3.77435e-002
1902	 1.9381250000e+002	 1.56918e-002
1903	 1.9387500000e+002	 9.48919e-003
1904	 1.9393750000e+002	 1.77466e-002
1905	 1.9400000000e+002	 2.68877e-002
1906	 1.9406250000e+002	 3.57295e-002
1907	 1.9412500000e+002	 1.45274e-002
1908	 1.9418750000e+002	 1.35471e-002
1909	 1.9425000000e+002	 2.92364e-002
1910	 1.9431250000e+002	 2.35695e-002
1911	 1.9437500000e+002	 3.92727e-002
1912	 1.9443750000e+002	 5.04576e-002
1913	 1.9450000000e+002	 2.14656e-002
1914	 1.9456250000e+002	 2.55464e-002
1915	 1.9462500000e+002	 2.89261e-002
1916	 1.9468750000e+002	 5.55438e-002
1917	 1.9475000000e+002	 3.36690e-002
1918	 1.9481250000e+002	 3.24518e-002
1919	 1.9487500000e+002	 2.55415e-002
1920	 1.9493750000e+002	 1.08359e-002
1921	 1.9500000000e+002	 3.17599e-002
1922	 1.9506250000e+002	 4.23086e-002
1923	 1.9512500000e+002	 3.20634e-002
1924	 1.9518750000e+002	 2.64521e-002
1925	 1.9525000000e+002	 1.85880e-002
1926	 1.9531250000e+002	 3.11719e-002
1927	 1.9537500000e+002	 3.35101e-002
1928	 1.9543750000e+002	 3.28192e-002
1929	 1.9550000000e+002	 5.23442e-002
1930	 1.9556250000e+002	 3.76411e-002
1931	 1.9562500000e+002	 4.76246e-002
1932	 1.9568750000e+002	 6.66198e-002
1933	 1.9575000000e+002	 2.71387e-002
1934	 1.9581250000e+002	 2.01786e-002
1935	 1.9587500000e+002	 4.11829e-002
1936	 1.9593750000e+002	 3.95832e-002
1937	 1.9600000000e+002	 2.65846e-002
1938	 1.9606250000e+002	 2.80037e-002
1939	 1.9612500000e+002	 2.97525e-002
1940	 1.9618750000e+002	 3.65171e-002
1941	 1.9625000000e+002	 1.33919e-002
1942	 1.9631250000e+002	 1.31957e-002
1943	 1.9637500000e+002	 8.81060e-003
1944	 1.9643750000e+002	 3.35920e-003
1945	 1.9650000000e+002	 1.31424e-002
1946	 1.9656250000e+002	 2.01943e-002
1947	 1.9662500000e+002	 4.05154e-002
1948	 1.9668750000e+002	 5.64782e-002
1949	 1.9675000000e+002	 2.27459e-002
1950	 1.9681250000e+002	 1.11740e-002
1951	 1.9687500000e+002	 1.88734e-002
1952	 1.9693750000e+002	 7.39743e-002
1953	 1.9700000000e+002	 7.27976e-002
1954	 1.9706250000e+002	 4.71350e-002
1955	 1.9712500000e+002	 3.92648e-002
1956	 1.9718750000e+002	 4.60141e-002
1957	 1.9725000000e+002	 3.32132e-002
1958	 1.9731250000e+002	 4.08817e-002
1959	 1.9737500000e+002	 1.86966e-002
1960	 1.9743750000e+002	 2.28385e-002
1961	 1.9750000000e+002	 6.06701e-002
1962	 1.9756250000e+002	 7.10526e-002
1963	 1.9762500000e+002	 3.85802e-002
1964	 1.9768750000e+002	 2.71996e-002
1965	 1.9775000000e+002	 1.65731e-002
1966	 1.9781250000e+002	 1.21527e-002
1967	 1.9787500000e+002	 3.20389e-002
1968	 1.9793750000e+002	 7.88600e-002
1969	 1.9800000000e+002	 4.09729e-002
1970	 1.9806250000e+002	 2.57061e-002
1971	 1.9812500000e+002	 2.87446e-002
1972	 1.9818750000e+002	 3.71261e-002
1973	 1.9825000000e+002	 3.55725e-002
1974	 1.9831250000e+002	 4.93266e-002
1975	 1.9837500000e+002	 7.00940e-002
1976	 1.9843750000e+002	 6.29085e-002
1977	 1.9850000000e+002	 2.14299e-002
1978	 1.9856250000e+002	 2.22636e-002
1979	 1.9862500000e+002	 3.11186e-002
1980	 1.9868750000e+002	 2.29062e-002
1981	 1.9875000000e+002	 5.31210e-002
1982	 1.9881250000e+002	 6.72642e-002
1983	 1.9887500000e+002	 4.65274e-002
1984	 1.9893750000e+002	 4.26426e-002
1985	 1.9900000000e+002	 8.50154e-002
1986	 1.9906250000e+002	 6.92280e-002
1987	 1.9912500000e+002	 3.33166e-002
1988	 1.9918750000e+002	 4.84825e-002
1989	 1.9925000000e+002	 8.01922e-002
1990	 1.9931250000e+002	 1.85364e-002
1991	 1.9937500000e+002	 3.06514e-002
1992	 1.9943750000e+002	 4.94792e-002
1993	 1.9950000000e+002	 3.90206e-002
1994	 1.9956250000e+002	 1.95891e-002
1995	 1.9962500000e+002	 2.91397e-002
1996	 1.9968750000e+002	 2.49934e-002
1997	 1.9975000000e+002	 2.11226e-002
1998	 1.9981250000e+002	 3.06139e-002
1999	 1.9987500000e+002	 8.57334e-002
2000	 1.9993750000e+002	 7.22634e-002
2001	 2.0000000000e+002	 3.44805e-002
2002	 2.0006250000e+002	 2.82611e-002
2003	 2.0012500000e+002	 4.46767e-002
2004	 2.0018750000e+002	 6.23250e-002
2005	 2.0025000000e+002	 9.35695e-002
2006	 2.0031250000e+002	 7.02415e-002
2007	 2.0037500000e+002	 4.37262e-002
2008	 2.0043750000e+002	 2.78177e-002
2009	 2.0050000000e+002	 3.31770e-002
2010	 2.0056250000e+002	 3.53681e-002
2011	 2.0062500000e+002	 1.79070e-002
2012	 2.0068750000e+002	 3.35477e-002
2013	 2.0075000000e+002	 2.72129e-002
2014	 2.0081250000e+002	 1.54555e-002
2015	 2.0087500000e+002	 2.64740e-002
2016	 2.0093750000e+002	 3.65266e-002
2017	 2.0100000000e+002	 4.53941e-002
2018	 2.0106250000e+002	 3.22332e-002
2019	 2.0112500000e+002	 3.61555e-002
2020	 2.0118750000e+002	 4.55527e-002
2021	 2.0125000000e+002	 3.71925e-002
2022	 2.0131250000e+002	 1.82429e-002
2023	 2.0137500000e+002	 3.78818e-002
2024	 2.0143750000e+002	 2.66297e-002
2025	 2.0150000000e+002	 1.42435e-002
2026	 2.0156250000e+002	 2.63290e-002
2027	 2.0162500000e+002	 3.84999e-002
2028	 2.0168750000e+002	 1.10940e-001
2029	 2.0175000000e+002	 9.58698e-002
2030	 2.0181250000e+002	 5.38454e-002
2031	 2.0187500000e+002	 8.84416e-002
2032	 2.0193750000e+002	 5.66866e-002
2033	 2.0200000000e+002	 7.91266e-002
2034	 2.0206250000e+002	 7.28136e-002
2035	 2.0212500000e+002	 2.95513e-002
2036	 2.0218750000e+002	 4.06201e-002
2037	 2.0225000000e+002	 3.01408e-002
2038	 2.0231250000e+002	 5.03588e-002
2039	 2.0237500000e+002	 1.16404e-001
2040	 2.0243750000e+002	 8.95233e-002
2041	 2.0250000000e+002	 9.40868e-002
2042	 2.0256250000e+002	 5.01396e-002
2043	 2.0262500000e+002	 7.90588e-002
2044	 2.0268750000e+002	 5.83012e-002
2045	 2.0275000000e+002	 2.80924e-002
2046	 2.0281250000e+002	 6.69647e-002
2047	 2.0287500000e+002	 7.62006e-002
2048	 2.0293750000e+002	 9.36608e-002
2049	 2.0300000000e+002	 1.18576e-001
2050	 2.0306250000e+002	 8.55574e-002
2051	 2.0312500000e+002	 4.90775e-002
2052	 2.0318750000e+002	 4.43022e-002
2053	 2.0325000000e+002	 1.09358e-001
2054	 2.0331250000e+002	 9.23824e-002
2055	 2.0337500000e+002	 3.80935e-002
2056	 2.0343750000e+002	 3.56615e-002
2057	 2.0350000000e+002	 4.67754e-002
2058	 2.0356250000e+002	 1.16563e-001
2059	 2.0362500000e+002	 9.85667e-002
2060	 2.0368750000e+002	 3.59265e-002
2061	 2.0375000000e+002	 1.97316e-002
2062	 2.0381250000e+002	 6.11500e-002
2063	 2.0387500000e+002	 5.56751e-002
2064	 2.0393750000e+002	 4.13335e-002
2065	 2.0400000000e+002	 4.59476e-002
2066	 2.0406250000e+002	 1.21977e-001
2067	 2.0412500000e+002	 1.62600e-001
2068	 2.0418750000e+002	 8.92135e-002
2069	 2.0425000000e+002	 6.75583e-002
2070	 2.0431250000e+002	 5.89512e-002
2071	 2.0437500000e+002	 3.95411e-002
2072	 2.0443750000e+002	 3.35618e-002
2073	 2.0450000000e+002	 4.26712e-002
2074	 2.0456250000e+002	 4.67369e-002
2075	 2.0462500000e+002	 4.62581e-002
2076	 2.0468750000e+002	 6.14275e-002
2077	 2.0475000000e+002	 2.26947e-002
2078	 2.0481250000e+002	 1.31749e-001
2079	 2.0487500000e+002	 1.81763e-001
2080	 2.0493750000e+002	 7.98377e-002
2081	 2.0500000000e+002	 4.42553e-002
2082	 2.0506250000e+002	 4.87402e-002
2083	 2.0512500000e+002	 5.10670e-002
2084	 2.0518750000e+002	 1.24669e-001
2085	 2.0525000000e+002	 2.25508e-001
2086	 2.0531250000e+002	 1.05729e-001
2087	 2.0537500000e+002	 8.56553e-002
2088	 2.0543750000e+002	 8.88674e-002
2089	 2.0550000000e+002	 3.77298e-002
2090	 2.0556250000e+002	 5.72073e-002
2091	 2.0562500000e+002	 8.37746e-002
2092	 2.0568750000e+002	 7.94666e-002
2093	 2.0575000000e+002	 7.72719e-002
2094	 2.0581250000e+002	 6.71358e-002
2095	 2.0587500000e+002	 9.15135e-002
2096	 2.0593750000e+002	 7.95348e-002
2097	 2.0600000000e+002	 9.79474e-002
2098	 2.0606250000e+002	 9.41361e-002
2099	 2.0612500000e+002	 6.01279e-002
2100	 2.0618750000e+002	 6.63898e-002
2101	 2.0625000000e+002	 8.76293e-002
2102	 2.0631250000e+002	 8.74186e-002
2103	 2.0637500000e+002	 7.46399e-002
2104	 2.0643750000e+002	 4.06157e-002
2105	 2.0650000000e+002	 9.42843e-002
2106	 2.0656250000e+002	 4.98570e-002
2107	 2.0662500000e+002	 6.93769e-002
2108	 2.0668750000e+002	 3.50216e-001
2109	 2.0675000000e+002	 2.39606e-001
2110	 2.0681250000e+002	 1.35207e-001
2111	 2.0687500000e+002	 1.34702e-001
2112	 2.0693750000e+002	 9.55489e-002
2113	 2.0700000000e+002	 1.78924e-001
2114	 2.0706250000e+002	 1.91026e-001
2115	 2.0712500000e+002	 6.01223e-002
2116	 2.0718750000e+002	 2.92684e-002
2117	 2.0725000000e+002	 5.06954e-002
2118	 2.0731250000e+002	 1.10237e-001
2119	 2.0737500000e+002	 1.59352e-001
2120	 2.0743750000e+002	 7.49276e-002
2121	 2.0750000000e+002	 4.87653e-002
2122	 2.0756250000e+002	 1.24065e-001
2123	 2.0762500000e+002	 1.28798e-001
2124	 2.0768750000e+002	 3.73107e-002
2125	 2.0775000000e+002	 2.54045e-002
2126	 2.0781250000e+002	 9.96444e-002
2127	 2.0787500000e+002	 2.15345e-001
2128	 2.0793750000e+002	 2.80336e-001
2129	 2.0800000000e+002	 3.18786e-001
2130	 2.0806250000e+002	 1.29282e-001
2131	 2.0812500000e+002	 5.69459e-002
2132	 2.0818750000e+002	 1.33864e-001
2133	 2.0825000000e+002	 2.07627e-001
2134	 2.0831250000e+002	 9.94970e-002
2135	 2.0837500000e+002	 7.89618e-002
2136	 2.0843750000e+002	 7.70352e-002
2137	 2.0850000000e+002	 2.05310e-001
2138	 2.0856250000e+002	 2.70190e-001
2139	 2.0862500000e+002	 1.86581e-001
2140	 2.0868750000e+002	 2.22015e-001
2141	 2.0875000000e+002	 2.17081e-001
2142	 2.0881250000e+002	 1.64321e-001
2143	 2.0887500000e+002	 1.77502e-001
2144	 2.0893750000e+002	 1.24540e-001
2145	 2.0900000000e+002	 7.43978e-002
2146	 2.0906250000e+002	 1.43327e-001
2147	 2.0912500000e+002	 2.54087e-001
2148	 2.0918750000e+002	 4.72611e-001
2149	 2.0925000000e+002	 4.32354e-001
2150	 2.0931250000e+002	 8.54809e-002
2151	 2.0937500000e+002	 2.06251e-001
2152	 2.0943750000e+002	 3.13103e-001
2153	 2.0950000000e+002	 2.69510e-001
2154	 2.0956250000e+002	 3.76941e-001
2155	 2.0962500000e+002	 2.18973e-001
2156	 2.0968750000e+002	 2.96259e-001
2157	 2.0975000000e+002	 1.94388e-001
2158	 2.0981250000e+002	 9.53024e-002
2159	 2.0987500000e+002	 5.85480e-002
2160	 2.0993750000e+002	 1.34523e-001
2161	 2.1000000000e+002	 2.90633e-001
2162	 2.1006250000e+002	 2.24058e-001
2163	 2.1012500000e+002	 7.35339e-002
2164	 2.1018750000e+002	 1.74071e-001
2165	 2.1025000000e+002	 3.23748e-001
2166	 2.1031250000e+002	 3.37632e-001
2167	 2.1037500000e+002	 2.58262e-001
2168	 2.1043750000e+002	 1.08702e-001
2169	 2.1050000000e+002	 1.69370e-001
2170	 2.1056250000e+002	 3.50918e-001
2171	 2.1062500000e+002	 2.25302e-001
2172	 2.1068750000e+002	 3.82847e-001
2173	 2.1075000000e+002	 3.96140e-001
2174	 2.1081250000e+002	 1.53871e-001
2175	 2.1087500000e+002	 4.59919e-001
2176	 2.1093750000e+002	 7.53799e-001
2177	 2.1100000000e+002	 6.04537e-001
2178	 2.1106250000e+002	 2.42903e-001
2179	 2.1112500000e+002	 1.29946e-001
2180	 2.1118750000e+002	 2.17102e-001
2181	 2.1125000000e+002	 2.15593e-001
2182	 2.1131250000e+002	 1.98744e-001
2183	 2.1137500000e+002	 3.24542e-001
2184	 2.1143750000e+002	 5.10004e-001
2185	 2.1150000000e+002	 4.42385e-001
2186	 2.1156250000e+002	 7.78941e-001
2187	 2.1162500000e+002	 7.60426e-001
2188	 2.1168750000e+002	 8.42507e-001
2189	 2.1175000000e+002	 5.04508e-001
2190	 2.1181250000e+002	 5.81025e-001
2191	 2.1187500000e+002	 5.74660e-001
2192	 2.1193750000e+002	 2.95864e-001
2193	 2.1200000000e+002	 3.77897e-001
2194	 2.1206250000e+002	 7.56874e-001
2195	 2.1212500000e+002	 6.76773e-001
2196	 2.1218750000e+002	 2.08741e-001
2197	 2.1225000000e+002	 1.53247e-001
2198	 2.1231250000e+002	 3.60078e-001
2199	 2.1237500000e+002	 4.94382e-001
2200	 2.1243750000e+002	 3.43522e-001
2201	 2.1250000000e+002	 3.94248e-001
2202	 2.1256250000e+002	 5.16570e-001
2203	 2.1262500000e+002	 8.14404e-001
2204	 2.1268750000e+002	 1.36265e+000
2205	 2.1275000000e+002	 7.01407e-001
2206	 2.1281250000e+002	 2.79708e-001
2207	 2.1287500000e+002	 4.20256e-001
2208	 2.1293750000e+002	 3.17548e-001
2209	 2.1300000000e+002	 7.88915e-001
2210	 2.1306250000e+002	 1.05895e+000
2211	 2.1312500000e+002	 5.02221e-001
2212	 2.1318750000e+002	 4.37467e-001
2213	 2.1325000000e+002	 4.77038e-001
2214	 2.1331250000e+002	 9.18051e-001
2215	 2.1337500000e+002	 1.12909e+000
2216	 2.1343750000e+002	 1.18556e+000
2217	 2.1350000000e+002	 9.51962e-001
2218	 2.1356250000e+002	 8.77254e-001
2219	 2.1362500000e+002	 1.56083e+000
2220	 2.1368750000e+002	 9.72983e-001
2221	 2.1375000000e+002	 4.74096e-001
2222	 2.1381250000e+002	 8.70524e-001
2223	 2.1387500000e+002	 1.00796e+000
2224	 2.1393750000e+002	 6.78457e-001
2225	 2.1400000000e+002	 3.68837e-001
2226	 2.1406250000e+002	 6.89214e-001
2227	 2.1412500000e+002	 1.03676e+000
2228	 2.1418750000e+002	 8.38750e-001
2229	 2.1425000000e+002	 2.08940e+000
2230	 2.1431250000e+002	 1.98630e+000
2231	 2.1437500000e+002	 9.16128e-001
2232	 2.1443750000e+002	 1.66706e+000
2233	 2.1450000000e+002	 1.34250e+000
2234	 2.1456250000e+002	 3.59639e-001
2235	 2.1462500000e+002	 1.03682e+000
2236	 2.1468750000e+002	 1.94407e+000
2237	 2.1475000000e+002	 7.35700e-001
2238	 2.1481250000e+002	 2.26530e-001
2239	 2.1487500000e+002	 3.19585e-001
2240	 2.1493750000e+002	 1.43998e+000
2241	 2.1500000000e+002	 1.35258e+000
2242	 2.1506250000e+002	 9.92448e-001
2243	 2.1512500000e+002	 6.26464e-001
2244	 2.1518750000e+002	 9.10780e-001
2245	 2.1525000000e+002	 6.34888e-001
2246	 2.1531250000e+002	 1.03734e+000
2247	 2.1537500000e+002	 7.25191e-001
2248	 2.1543750000e+002	 7.07808e-001
2249	 2.1550000000e+002	 3.87452e-001
2250	 2.1556250000e+002	 5.43470e-001
2251	 2.1562500000e+002	 6.85350e-001
2252	 2.1568750000e+002	 8.50554e-001
2253	 2.1575000000e+002	 5.65491e-001
2254	 2.1581250000e+002	 3.61124e-001
2255	 2.1587500000e+002	 8.30524e-001
2256	 2.1593750000e+002	 5.09048e-001
2257	 2.1600000000e+002	 6.13729e-001
2258	 2.1606250000e+002	 9.98647e-001
2259	 2.1612500000e+002	 8.15654e-001
2260	 2.1618750000e+002	 3.86820e-001
2261	 2.1625000000e+002	 5.96717e-001
2262	 2.1631250000e+002	 5.14509e-001
2263	 2.1637500000e+002	 1.27749e+000
2264	 2.1643750000e+002	 2.13002e+000
2265	 2.1650000000e+002	 8.83240e-001
2266	 2.1656250000e+002	 4.91787e-001
2267	 2.1662500000e+002	 3.02202e-001
2268	 2.1668750000e+002	 3.12037e-001
2269	 2.1675000000e+002	 5.85228e-001
2270	 2.1681250000e+002	 6.36347e-001
2271	 2.1687500000e+002	 6.63498e-001
2272	 2.1693750000e+002	 7.03739e-001
2273	 2.1700000000e+002	 1.13685e+000
2274	 2.1706250000e+002	 1.18203e+000
2275	 2.1712500000e+002	 3.41859e-001
2276	 2.1718750000e+002	 1.45200e-001
2277	 2.1725000000e+002	 3.78003e-001
2278	 2.1731250000e+002	 5.90040e-001
2279	 2.1737500000e+002	 4.58097e-001
2280	 2.1743750000e+002	 6.67727e-001
2281	 2.1750000000e+002	 5.50328e-001
2282	 2.1756250000e+002	 3.52642e-001
2283	 2.1762500000e+002	 4.25371e-001
2284	 2.1768750000e+002	 2.25051e-001
2285	 2.1775000000e+002	 4.76199e-001
2286	 2.1781250000e+002	 3.90401e-001
2287	 2.1787500000e+002	 9.53854e-002
2288	 2.1793750000e+002	 3.01958e-001
2289	 2.1800000000e+002	 5.76895e-001
2290	 2.1806250000e+002	 4.53953e-001
2291	 2.1812500000e+002	 4.11778e-001
2292	 2.1818750000e+002	 2.53198e-001
2293	 2.1825000000e+002	 3.80019e-001
2294	 2.1831250000e+002	 4.00650e-001
2295	 2.1837500000e+002	 4.47088e-001
2296	 2.1843750000e+002	 2.77409e-001
2297	 2.1850000000e+002	 2.11143e-001
2298	 2.1856250000e+002	 1.18134e-001
2299	 2.1862500000e+002	 1.24823e-001
2300	 2.1868750000e+002	 3.22760e-001
2301	 2.1875000000e+002	 3.10170e-001
2302	 2.1881250000e+002	 2.76762e-001
2303	 2.1887500000e+002	 1.28794e-001
2304	 2.1893750000e+002	 2.66781e-001
2305	 2.1900000000e+002	 3.40998e-001
2306	 2.1906250000e+002	 3.22805e-001
2307	 2.1912500000e+002	 2.00327e-001
2308	 2.1918750000e+002	 2.15958e-001
2309	 2.1925000000e+002	 3.69175e-001
2310	 2.1931250000e+002	 2.05954e-001
2311	 2.1937500000e+002	 3.50529e-001
2312	 2.1943750000e+002	 2.71419e-001
2313	 2.1950000000e+002	 1.35397e-001
2314	 2.1956250000e+002	 1.61677e-001
2315	 2.1962500000e+002	 1.96043e-001
2316	 2.1968750000e+002	 2.49046e-001
2317	 2.1975000000e+002	 1.44753e-001
2318	 2.1981250000e+002	 2.28543e-001
2319	 2.1987500000e+002	 1.09202e-001
2320	 2.1993750000e+002	 1.57983e-001
2321	 2.2000000000e+002	 1.61261e-001
2322	 2.2006250000e+002	 1.30898e-001
2323	 2.2012500000e+002	 2.17274e-001
2324	 2.2018750000e+002	 3.01137e-001
2325	 2.2025000000e+002	 1.56538e-001
2326	 2.2031250000e+002	 1.44477e-001
2327	 2.2037500000e+002	 2.15614e-001
2328	 2.2043750000e+002	 2.80670e-001
2329	 2.2050000000e+002	 1.49560e-001
2330	 2.2056250000e+002	 1.21658e-001
2331	 2.2062500000e+002	 1.26398e-001
2332	 2.2068750000e+002	 1.83042e-001
2333	 2.2075000000e+002	 1.69994e-001
2334	 2.2081250000e+002	 2.52354e-001
2335	 2.2087500000e+002	 4.76402e-001
2336	 2.2093750000e+002	 2.99621e-001
2337	 2.2100000000e+002	 2.18093e-001
2338	 2.2106250000e+002	 4.96327e-001
2339	 2.2112500000e+002	 2.70860e-001
2340	 2.2118750000e+002	 5.42504e-002
2341	 2.2125000000e+002	 5.26726e-002
2342	 2.2131250000e+002	 1.06238e-001
2343	 2.2137500000e+002	 1.02336e-001
2344	 2.2143750000e+002	 9.40954e-002
2345	 2.2150000000e+002	 8.56739e-002
2346	 2.2156250000e+002	 6.30932e-002
2347	 2.2162500000e+002	 6.03307e-002
2348	 2.2168750000e+002	 2.10558e-001
2349	 2.2175000000e+002	 1.20219e-001
2350	 2.2181250000e+002	 1.08698e-001
2351	 2.2187500000e+002	 1.15232e-001
2352	 2.2193750000e+002	 7.60943e-002
2353	 2.2200000000e+002	 9.63729e-002
2354	 2.2206250000e+002	 5.18280e-002
2355	 2.2212500000e+002	 1.38348e-001
2356	 2.2218750000e+002	 2.07426e-001
2357	 2.2225000000e+002	 7.82490e-002
2358	 2.2231250000e+002	 7.46320e-002
2359	 2.2237500000e+002	 8.53054e-002
2360	 2.2243750000e+002	 6.78241e-002
2361	 2.2250000000e+002	 8.00838e-002
2362	 2.2256250000e+002	 7.79581e-002
2363	 2.2262500000e+002	 1.05100e-001
2364	 2.2268750000e+002	 9.62137e-002
2365	 2.2275000000e+002	 6.24995e-002
2366	 2.2281250000e+002	 3.31981e-002
2367	 2.2287500000e+002	 6.88112e-002
2368	 2.2293750000e+002	 1.05146e-001
2369	 2.2300000000e+002	 5.29094e-002
2370	 2.2306250000e+002	 2.29322e-002
2371	 2.2312500000e+002	 6.93722e-002
2372	 2.2318750000e+002	 1.59604e-001
2373	 2.2325000000e+002	 1.50502e-001
2374	 2.2331250000e+002	 1.08259e-001
2375	 2.2337500000e+002	 1.12877e-001
2376	 2.2343750000e+002	 6.76922e-002
2377	 2.2350000000e+002	 1.21664e-001
2378	 2.2356250000e+002	 1.04761e-001
2379	 2.2362500000e+002	 9.17454e-002
2380	 2.2368750000e+002	 1.19814e-001
2381	 2.2375000000e+002	 7.50250e-002
2382	 2.2381250000e+002	 2.37338e-002
2383	 2.2387500000e+002	 4.49173e-002
2384	 2.2393750000e+002	 1.12716e-001
2385	 2.2400000000e+002	 8.63174e-002
2386	 2.2406250000e+002	 6.90270e-002
2387	 2.2412500000e+002	 7.57575e-002
2388	 2.2418750000e+002	 1.70531e-001
2389	 2.2425000000e+002	 8.98416e-002
2390	 2.2431250000e+002	 3.37476e-002
2391	 2.2437500000e+002	 3.65453e-002
2392	 2.2443750000e+002	 4.02373e-002
2393	 2.2450000000e+002	 6.14575e-002
2394	 2.2456250000e+002	 5.13564e-002
2395	 2.2462500000e+002	 8.33732e-002
2396	 2.2468750000e+002	 1.08122e-001
2397	 2.2475000000e+002	 1.13284e-001
2398	 2.2481250000e+002	 2.30475e-001
2399	 2.2487500000e+002	 1.77910e-001
2400	 2.2493750000e+002	 4.26642e-002
2401	 2.2500000000e+002	 2.02616e-002
2402	 2.2506250000e+002	 4.17291e-002
2403	 2.2512500000e+002	 7.02451e-002
2404	 2.2518750000e+002	 4.34569e-002
2405	 2.2525000000e+002	 1.10837e-001
2406	 2.2531250000e+002	 7.62146e-002
2407	 2.2537500000e+002	 2.45223e-002
2408	 2.2543750000e+002	 2.42157e-002
2409	 2.2550000000e+002	 5.02033e-002
2410	 2.2556250000e+002	 6.92399e-002
2411	 2.2562500000e+002	 6.98657e-002
2412	 2.2568750000e+002	 9.39137e-002
2413	 2.2575000000e+002	 9.66339e-002
2414	 2.2581250000e+002	 8.44171e-002
2415	 2.2587500000e+002	 5.36940e-002
2416	 2.2593750000e+002	 7.39238e-002
2417	 2.2600000000e+002	 3.59370e-002
2418	 2.2606250000e+002	 5.48457e-002
2419	 2.2612500000e+002	 8.61054e-002
2420	 2.2618750000e+002	 5.08729e-002
2421	 2.2625000000e+002	 5.22883e-002
2422	 2.2631250000e+002	 8.20011e-002
2423	 2.2637500000e+002	 6.83511e-002
2424	 2.2643750000e+002	 7.26280e-002
2425	 2.2650000000e+002	 3.09538e-002
2426	 2.2656250000e+002	 5.90672e-002
2427	 2.2662500000e+002	 4.22074e-002
2428	 2.2668750000e+002	 1.30552e-002
2429	 2.2675000000e+002	 9.31921e-003
2430	 2.2681250000e+002	 1.88523e-002
2431	 2.2687500000e+002	 4.10773e-002
2432	 2.2693750000e+002	 7.55499e-002
2433	 2.2700000000e+002	 4.82322e-002
2434	 2.2706250000e+002	 2.97386e-002
2435	 2.2712500000e+002	 1.99723e-002
2436	 2.2718750000e+002	 3.63218e-002
2437	 2.2725000000e+002	 3.29645e-002
2438	 2.2731250000e+002	 3.19367e-002
2439	 2.2737500000e+002	 3.68851e-002
2440	 2.2743750000e+002	 5.37631e-002
2441	 2.2750000000e+002	 5.70644e-002
2442	 2.2756250000e+002	 4.29058e-002
2443	 2.2762500000e+002	 3.26491e-002
2444	 2.2768750000e+002	 9.80439e-002
2445	 2.2775000000e+002	 6.20013e-002
2446	 2.2781250000e+002	 3.58233e-002
2447	 2.2787500000e+002	 7.01098e-002
2448	 2.2793750000e+002	 8.54192e-002
2449	 2.2800000000e+002	 6.45767e-002
2450	 2.2806250000e+002	 3.07623e-002
2451	 2.2812500000e+002	 3.07470e-002
2452	 2.2818750000e+002	 4.77563e-002
2453	 2.2825000000e+002	 2.57362e-002
2454	 2.2831250000e+002	 3.96196e-002
2455	 2.2837500000e+002	 3.90568e-002
2456	 2.2843750000e+002	 5.23748e-002
2457	 2.2850000000e+002	 3.54818e-002
2458	 2.2856250000e+002	 1.18132e-002
2459	 2.2862500000e+002	 1.89288e-002
2460	 2.2868750000e+002	 1.63473e-002
2461	 2.2875000000e+002	 4.12232e-002
2462	 2.2881250000e+002	 4.98337e-002
2463	 2.2887500000e+002	 6.69345e-002
2464	 2.2893750000e+002	 5.43442e-002
2465	 2.2900000000e+002	 4.05035e-002
2466	 2.2906250000e+002	 1.89866e-002
2467	 2.2912500000e+002	 2.16989e-002
2468	 2.2918750000e+002	 2.74686e-002
2469	 2.2925000000e+002	 3.92044e-002
2470	 2.2931250000e+002	 3.11900e-002
2471	 2.2937500000e+002	 2.30257e-002
2472	 2.2943750000e+002	 3.19176e-002
2473	 2.2950000000e+002	 2.18065e-002
2474	 2.2956250000e+002	 1.95559e-002
2475	 2.2962500000e+002	 2.72994e-002
2476	 2.2968750000e+002	 1.60921e-002
2477	 2.2975000000e+002	 1.09060e-002
2478	 2.2981250000e+002	 1.04190e-002
2479	 2.2987500000e+002	 1.84162e-002
2480	 2.2993750000e+002	 3.92522e-002
2481	 2.3000000000e+002	 3.04923e-002
2482	 2.3006250000e+002	 3.83263e-002
2483	 2.3012500000e+002	 4.16098e-002
2484	 2.3018750000e+002	 5.71550e-002
2485	 2.3025000000e+002	 4.28829e-002
2486	 2.3031250000e+002	 2.29441e-002
2487	 2.3037500000e+002	 1.06127e-002
2488	 2.3043750000e+002	 3.14083e-002
2489	 2.3050000000e+002	 2.22108e-002
2490	 2.3056250000e+002	 9.24071e-003
2491	 2.3062500000e+002	 1.26500e-002
2492	 2.3068750000e+002	 2.09690e-002
2493	 2.3075000000e+002	 1.43616e-002
2494	 2.3081250000e+002	 1.50895e-002
2495	 2.3087500000e+002	 1.26150e-002
2496	 2.3093750000e+002	 1.28436e-002
2497	 2.3100000000e+002	 2.88349e-002
2498	 2.3106250000e+002	 2.75856e-002
2499	 2.3112500000e+002	 2.57773e-002
2500	 2.3118750000e+002	 1.76194e-002
2501	 2.3125000000e+002	 1.63316e-002
2502	 2.3131250000e+002	 1.86199e-002
2503	 2.3137500000e+002	 2.52950e-002
2504	 2.3143750000e+002	 5.67243e-002
2505	 2.3150000000e+002	 7.18746e-002
2506	 2.3156250000e+002	 3.80740e-002
2507	 2.3162500000e+002	 4.36879e-002
2508	 2.3168750000e+002	 6.56296e-002
2509	 2.3175000000e+002	 5.11475e-002
2510	 2.3181250000e+002	 1.70114e-002
2511	 2.3187500000e+002	 3.67148e-002
2512	 2.3193750000e+002	 2.91941e-002
2513	 2.3200000000e+002	 8.84670e-003
2514	 2.3206250000e+002	 1.21534e-002
2515	 2.3212500000e+002	 1.38866e-002
2516	 2.3218750000e+002	 2.04722e-002
2517	 2.3225000000e+002	 5.47743e-002
2518	 2.3231250000e+002	 5.68839e-002
2519	 2.3237500000e+002	 3.90916e-002
2520	 2.3243750000e+002	 2.79933e-002
2521	 2.3250000000e+002	 2.78055e-002
2522	 2.3256250000e+002	 2.36117e-002
2523	 2.3262500000e+002	 1.88697e-002
2524	 2.3268750000e+002	 2.07182e-002
2525	 2.3275000000e+002	 1.02675e-002
2526	 2.3281250000e+002	 7.79145e-003
2527	 2.3287500000e+002	 1.26466e-002
2528	 2.3293750000e+002	 2.31638e-002
2529	 2.3300000000e+002	 2.01142e-002
2530	 2.3306250000e+002	 7.95558e-003
2531	 2.3312500000e+002	 8.57167e-003
2532	 2.3318750000e+002	 1.26163e-002
2533	 2.3325000000e+002	 1.66593e-002
2534	 2.3331250000e+002	 3.45824e-002
2535	 2.3337500000e+002	 1.33364e-002
2536	 2.3343750000e+002	 3.09695e-002
2537	 2.3350000000e+002	 6.28796e-002
2538	 2.3356250000e+002	 4.18613e-002
2539	 2.3362500000e+002	 1.69139e-002
2540	 2.3368750000e+002	 8.21086e-003
2541	 2.3375000000e+002	 1.25418e-002
2542	 2.3381250000e+002	 1.98835e-002
2543	 2.3387500000e+002	 1.73204e-002
2544	 2.3393750000e+002	 1.32505e-002
2545	 2.3400000000e+002	 1.87221e-002
2546	 2.3406250000e+002	 1.58777e-002
2547	 2.3412500000e+002	 1.50775e-002
2548	 2.3418750000e+002	 1.45151e-002
2549	 2.3425000000e+002	 1.85924e-002
2550	 2.3431250000e+002	 8.99095e-003
2551	 2.3437500000e+002	 1.37894e-002
2552	 2.3443750000e+002	 2.40597e-002
2553	 2.3450000000e+002	 2.37265e-002
2554	 2.3456250000e+002	 1.77417e-002
2555	 2.3462500000e+002	 3.10239e-002
2556	 2.3468750000e+002	 3.42440e-002
2557	 2.3475000000e+002	 1.90400e-002
2558	 2.3481250000e+002	 2.44765e-002
2559	 2.3487500000e+002	 1.82737e-002
2560	 2.3493750000e+002	 4.54888e-002
2561	 2.3500000000e+002	 2.01674e-002
2562	 2.3506250000e+002	 1.56392e-002
2563	 2.3512500000e+002	 2.05856e-002
2564	 2.3518750000e+002	 1.70932e-002
2565	 2.3525000000e+002	 1.78214e-002
2566	 2.3531250000e+002	 3.17797e-002
2567	 2.3537500000e+002	 2.03052e-002
2568	 2.3543750000e+002	 1.90852e-002
2569	 2.3550000000e+002	 4.26792e-002
2570	 2.3556250000e+002	 2.78751e-002
2571	 2.3562500000e+002	 1.74954e-002
2572	 2.3568750000e+002	 9.88339e-003
2573	 2.3575000000e+002	 2.20187e-002
2574	 2.3581250000e+002	 4.25688e-002
2575	 2.3587500000e+002	 3.08323e-002
2576	 2.3593750000e+002	 1.41150e-002
2577	 2.3600000000e+002	 7.52522e-003
2578	 2.3606250000e+002	 8.58934e-003
2579	 2.3612500000e+002	 1.58004e-002
2580	 2.3618750000e+002	 3.16741e-002
2581	 2.3625000000e+002	 1.76369e-002
2582	 2.3631250000e+002	 9.05355e-003
2583	 2.3637500000e+002	 2.03636e-002
2584	 2.3643750000e+002	 2.98333e-002
2585	 2.3650000000e+002	 1.99559e-002
2586	 2.3656250000e+002	 2.64754e-002
2587	 2.3662500000e+002	 1.29751e-002
2588	 2.3668750000e+002	 1.40975e-002
2589	 2.3675000000e+002	 1.69203e-002
2590	 2.3681250000e+002	 1.51928e-002
2591	 2.3687500000e+002	 1.23816e-002
2592	 2.3693750000e+002	 2.23650e-002
2593	 2.3700000000e+002	 4.49751e-002
2594	 2.3706250000e+002	 2.90978e-002
2595	 2.3712500000e+002	 1.04234e-002
2596	 2.3718750000e+002	 2.06697e-002
2597	 2.3725000000e+002	 1.57757e-002
2598	 2.3731250000e+002	 8.64232e-003
2599	 2.3737500000e+002	 2.41765e-002
2600	 2.3743750000e+002	 2.54237e-002
2601	 2.3750000000e+002	 1.13122e-002
2602	 2.3756250000e+002	 5.82268e-003
2603	 2.3762500000e+002	 1.47877e-002
2604	 2.3768750000e+002	 2.50959e-002
2605	 2.3775000000e+002	 2.44900e-002
2606	 2.3781250000e+002	 3.15066e-002
2607	 2.3787500000e+002	 5.20213e-002
2608	 2.3793750000e+002	 2.26864e-002
2609	 2.3800000000e+002	 1.11790e-002
2610	 2.3806250000e+002	 1.30132e-002
2611	 2.3812500000e+002	 2.47516e-002
2612	 2.3818750000e+002	 2.55277e-002
2613	 2.3825000000e+002	 2.49147e-002
2614	 2.3831250000e+002	 1.54972e-002
2615	 2.3837500000e+002	 1.20168e-002
2616	 2.3843750000e+002	 7.46695e-003
2617	 2.3850000000e+002	 1.12860e-002
2618	 2.3856250000e+002	 1.02477e-002
2619	 2.3862500000e+002	 1.64501e-002
2620	 2.3868750000e+002	 2.56913e-002
2621	 2.3875000000e+002	 2.54094e-002
2622	 2.3881250000e+002	 3.15064e-002
2623	 2.3887500000e+002	 1.56720e-002
2624	 2.3893750000e+002	 2.61720e-002
2625	 2.3900000000e+002	 2.16046e-002
2626	 2.3906250000e+002	 2.45534e-002
2627	 2.3912500000e+002	 2.07877e-002
2628	 2.3918750000e+002	 1.97976e-002
2629	 2.3925000000e+002	 1.22031e-002
2630	 2.3931250000e+002	 4.34955e-003
2631	 2.3937500000e+002	 1.10749e-002
2632	 2.3943750000e+002	 2.68189e-002
2633	 2.3950000000e+002	 2.56623e-002
2634	 2.3956250000e+002	 1.40455e-002
2635	 2.3962500000e+002	 1.52678e-002
2636	 2.3968750000e+002	 1.21278e-002
2637	 2.3975000000e+002	 1.60000e-002
2638	 2.3981250000e+002	 3.44967e-002
2639	 2.3987500000e+002	 2.65652e-002
2640	 2.3993750000e+002	 4.44256e-002
2641	 2.4000000000e+002	 4.21097e-002
2642	 2.4006250000e+002	 9.15520e-003
2643	 2.4012500000e+002	 2.23515e-002
2644	 2.4018750000e+002	 2.68010e-002
2645	 2.4025000000e+002	 9.12797e-003
2646	 2.4031250000e+002	 9.53185e-003
2647	 2.4037500000e+002	 1.41277e-002
2648	 2.4043750000e+002	 1.51051e-002
2649	 2.4050000000e+002	 1.47066e-002
2650	 2.4056250000e+002	 2.80718e-002
2651	 2.4062500000e+002	 1.91859e-002
2652	 2.4068750000e+002	 9.62973e-003
2653	 2.4075000000e+002	 2.99663e-002
2654	 2.4081250000e+002	 2.83175e-002
2655	 2.4087500000e+002	 3.48138e-002
2656	 2.4093750000e+002	 4.26308e-002
2657	 2.4100000000e+002	 3.69988e-002
2658	 2.4106250000e+002	 2.70696e-002
2659	 2.4112500000e+002	 1.53014e-002
2660	 2.4118750000e+002	 1.76520e-002
2661	 2.4125000000e+002	 1.37211e-002
2662	 2.4131250000e+002	 1.81167e-002
2663	 2.4137500000e+002	 3.30740e-002
2664	 2.4143750000e+002	 3.12595e-002
2665	 2.4150000000e+002	 3.80894e-002
2666	 2.4156250000e+002	 1.75837e-002
2667	 2.4162500000e+002	 7.04581e-003
2668	 2.4168750000e+002	 2.14494e-002
2669	 2.4175000000e+002	 2.80050e-002
2670	 2.4181250000e+002	 1.22845e-002
2671	 2.4187500000e+002	 2.77462e-002
2672	 2.4193750000e+002	 2.34797e-002
2673	 2.4200000000e+002	 1.28713e-002
2674	 2.4206250000e+002	 1.91828e-002
2675	 2.4212500000e+002	 2.19196e-002
2676	 2.4218750000e+002	 1.92511e-002
2677	 2.4225000000e+002	 8.82575e-003
2678	 2.4231250000e+002	 9.06294e-003
2679	 2.4237500000e+002	 2.32531e-002
2680	 2.4243750000e+002	 2.96312e-002
2681	 2.4250000000e+002	 1.05597e-002
2682	 2.4256250000e+002	 1.47220e-002
2683	 2.4262500000e+002	 1.96182e-002
2684	 2.4268750000e+002	 1.55444e-002
2685	 2.4275000000e+002	 7.47195e-003
2686	 2.4281250000e+002	 9.37854e-003
2687	 2.4287500000e+002	 9.21329e-003
2688	 2.4293750000e+002	 8.49472e-003
2689	 2.4300000000e+002	 1.94206e-002
2690	 2.4306250000e+002	 2.86786e-002
2691	 2.4312500000e+002	 2.77560e-002
2692	 2.4318750000e+002	 1.71279e-002
2693	 2.4325000000e+002	 1.60080e-002
2694	 2.4331250000e+002	 1.03195e-002
2695	 2.4337500000e+002	 2.05328e-002
2696	 2.4343750000e+002	 3.17072e-002
2697	 2.4350000000e+002	 1.55138e-002
2698	 2.4356250000e+002	 2.09343e-002
2699	 2.4362500000e+002	 2.06166e-002
2700	 2.4368750000e+002	 2.11331e-002
2701	 2.4375000000e+002	 1.99125e-002
2702	 2.4381250000e+002	 1.39065e-002
2703	 2.4387500000e+002	 1.49707e-002
2704	 2.4393750000e+002	 1.30378e-002
2705	 2.4400000000e+002	 7.57249e-003
2706	 2.4406250000e+002	 1.33616e-002
2707	 2.4412500000e+002	 2.32523e-002
2708	 2.4418750000e+002	 1.46778e-002
2709	 2.4425000000e+002	 1.06428e-002
2710	 2.4431250000e+002	 1.52178e-002
2711	 2.4437500000e+002	 2.04413e-002
2712	 2.4443750000e+002	 2.50278e-002
2713	 2.4450000000e+002	 2.16710e-002
2714	 2.4456250000e+002	 1.29421e-002
2715	 2.4462500000e+002	 1.17937e-002
2716	 2.4468750000e+002	 1.87779e-002
2717	 2.4475000000e+002	 2.30853e-002
2718	 2.4481250000e+002	 2.24294e-002
2719	 2.4487500000e+002	 1.94715e-002
2720	 2.4493750000e+002	 4.26928e-002
2721	 2.4500000000e+002	 3.17510e-002
2722	 2.4506250000e+002	 1.05385e-002
2723	 2.4512500000e+002	 1.40051e-002
2724	 2.4518750000e+002	 3.05361e-002
2725	 2.4525000000e+002	 1.23865e-002
2726	 2.4531250000e+002	 1.35997e-002
2727	 2.4537500000e+002	 2.27148e-002
2728	 2.4543750000e+002	 2.21931e-002
2729	 2.4550000000e+002	 3.60851e-002
2730	 2.4556250000e+002	 1.71296e-002
2731	 2.4562500000e+002	 1.50595e-002
2732	 2.4568750000e+002	 3.65507e-002
2733	 2.4575000000e+002	 4.17568e-002
2734	 2.4581250000e+002	 2.80657e-002
2735	 2.4587500000e+002	 2.00366e-002
2736	 2.4593750000e+002	 2.23078e-002
2737	 2.4600000000e+002	 1.44488e-002
2738	 2.4606250000e+002	 1.41652e-002
2739	 2.4612500000e+002	 1.19437e-002
2740	 2.4618750000e+002	 2.01288e-002
2741	 2.4625000000e+002	 2.71088e-002
2742	 2.4631250000e+002	 3.14341e-002
2743	 2.4637500000e+002	 3.10154e-002
2744	 2.4643750000e+002	 1.67593e-002
2745	 2.4650000000e+002	 1.57936e-002
2746	 2.4656250000e+002	 2.88462e-002
2747	 2.4662500000e+002	 4.09309e-002
2748	 2.4668750000e+002	 2.26315e-002
2749	 2.4675000000e+002	 2.91339e-002
2750	 2.4681250000e+002	 2.43860e-002
2751	 2.4687500000e+002	 3.43606e-002
2752	 2.4693750000e+002	 2.51102e-002
2753	 2.4700000000e+002	 2.88142e-002
2754	 2.4706250000e+002	 3.50988e-002
2755	 2.4712500000e+002	 2.47662e-002
2756	 2.4718750000e+002	 1.18970e-002
2757	 2.4725000000e+002	 1.21499e-002
2758	 2.4731250000e+002	 2.10949e-002
2759	 2.4737500000e+002	 2.02565e-002
2760	 2.4743750000e+002	 1.91519e-002
2761	 2.4750000000e+002	 1.85453e-002
2762	 2.4756250000e+002	 1.45240e-002
2763	 2.4762500000e+002	 2.11632e-002
2764	 2.4768750000e+002	 1.54627e-002
2765	 2.4775000000e+002	 1.58596e-002
2766	 2.4781250000e+002	 2.08860e-002
2767	 2.4787500000e+002	 1.78185e-002
2768	 2.4793750000e+002	 1.25343e-002
2769	 2.4800000000e+002	 1.26098e-002
2770	 2.4806250000e+002	 1.49202e-002
2771	 2.4812500000e+002	 1.60216e-002
2772	 2.4818750000e+002	 1.08225e-002
2773	 2.4825000000e+002	 9.88580e-003
2774	 2.4831250000e+002	 1.25001e-002
2775	 2.4837500000e+002	 1.96356e-002
2776	 2.4843750000e+002	 1.47922e-002
2777	 2.4850000000e+002	 1.05037e-002
2778	 2.4856250000e+002	 2.46131e-002
2779	 2.4862500000e+002	 2.63470e-002
2780	 2.4868750000e+002	 3.20751e-002
2781	 2.4875000000e+002	 3.83211e-002
2782	 2.4881250000e+002	 1.23602e-002
2783	 2.4887500000e+002	 1.10298e-002
2784	 2.4893750000e+002	 1.56545e-002
2785	 2.4900000000e+002	 1.80695e-002
2786	 2.4906250000e+002	 5.31025e-002
2787	 2.4912500000e+002	 4.43107e-002
2788	 2.4918750000e+002	 9.76140e-003
2789	 2.4925000000e+002	 6.75321e-003
2790	 2.4931250000e+002	 1.27716e-002
2791	 2.4937500000e+002	 1.87536e-002
2792	 2.4943750000e+002	 1.93234e-002
2793	 2.4950000000e+002	 2.84007e-002
2794	 2.4956250000e+002	 1.48943e-002
2795	 2.4962500000e+002	 6.81259e-003
2796	 2.4968750000e+002	 7.78799e-003
2797	 2.4975000000e+002	 1.38170e-002
2798	 2.4981250000e+002	 2.11317e-002
2799	 2.4987500000e+002	 1.41272e-002
2800	 2.4993750000e+002	 2.13070e-002
2801	 2.5000000000e+002	 3.38194e-002
2802	 2.5006250000e+002	 3.33281e-002
2803	 2.5012500000e+002	 1.65142e-002
2804	 2.5018750000e+002	 1.60635e-002
2805	 2.5025000000e+002	 1.06829e-002
2806	 2.5031250000e+002	 1.89252e-002
2807	 2.5037500000e+002	 2.22211e-002
2808	 2.5043750000e+002	 3.04574e-002
2809	 2.5050000000e+002	 2.08277e-002
2810	 2.5056250000e+002	 4.27658e-002
2811	 2.5062500000e+002	 1.94787e-002
2812	 2.5068750000e+002	 2.35394e-002
2813	 2.5075000000e+002	 2.26658e-002
2814	 2.5081250000e+002	 1.63838e-002
2815	 2.5087500000e+002	 1.29902e-002
2816	 2.5093750000e+002	 1.27633e-002
2817	 2.5100000000e+002	 1.57658e-002
2818	 2.5106250000e+002	 3.01489e-002
2819	 2.5112500000e+002	 2.92828e-002
2820	 2.5118750000e+002	 2.38926e-002
2821	 2.5125000000e+002	 2.11666e-002
2822	 2.5131250000e+002	 3.98421e-002
2823	 2.5137500000e+002	 4.71084e-002
2824	 2.5143750000e+002	 3.42896e-002
2825	 2.5150000000e+002	 3.67055e-002
2826	 2.5156250000e+002	 2.28467e-002
2827	 2.5162500000e+002	 1.73265e-002
2828	 2.5168750000e+002	 1.10691e-002
2829	 2.5175000000e+002	 1.42088e-002
2830	 2.5181250000e+002	 2.72680e-002
2831	 2.5187500000e+002	 1.70322e-002
2832	 2.5193750000e+002	 1.17819e-002
2833	 2.5200000000e+002	 1.14299e-002
2834	 2.5206250000e+002	 1.67235e-002
2835	 2.5212500000e+002	 2.88981e-002
2836	 2.5218750000e+002	 4.81008e-002
2837	 2.5225000000e+002	 3.76493e-002
2838	 2.5231250000e+002	 7.12826e-002
2839	 2.5237500000e+002	 2.77885e-002
2840	 2.5243750000e+002	 3.16316e-002
2841	 2.5250000000e+002	 3.08458e-002
2842	 2.5256250000e+002	 2.83837e-002
2843	 2.5262500000e+002	 2.55000e-002
2844	 2.5268750000e+002	 1.68622e-002
2845	 2.5275000000e+002	 2.58509e-002
2846	 2.5281250000e+002	 3.62953e-002
2847	 2.5287500000e+002	 3.33025e-002
2848	 2.5293750000e+002	 4.46969e-002
2849	 2.5300000000e+002	 2.73796e-002
2850	 2.5306250000e+002	 4.42267e-002
2851	 2.5312500000e+002	 3.58885e-002
2852	 2.5318750000e+002	 3.10615e-002
2853	 2.5325000000e+002	 2.24340e-002
2854	 2.5331250000e+002	 2.51840e-002
2855	 2.5337500000e+002	 1.10322e-002
2856	 2.5343750000e+002	 1.20281e-002
2857	 2.5350000000e+002	 1.99873e-002
2858	 2.5356250000e+002	 4.17293e-002
2859	 2.5362500000e+002	 5.45398e-002
2860	 2.5368750000e+002	 6.46558e-002
2861	 2.5375000000e+002	 5.06303e-002
2862	 2.5381250000e+002	 2.82129e-002
2863	 2.5387500000e+002	 6.57555e-003
2864	 2.5393750000e+002	 1.66980e-002
2865	 2.5400000000e+002	 4.23431e-002
2866	 2.5406250000e+002	 4.10086e-002
2867	 2.5412500000e+002	 1.26073e-002
2868	 2.5418750000e+002	 5.96457e-003
2869	 2.5425000000e+002	 1.07537e-002
2870	 2.5431250000e+002	 3.22896e-002
2871	 2.5437500000e+002	 4.12983e-002
2872	 2.5443750000e+002	 3.13520e-002
2873	 2.5450000000e+002	 5.44509e-002
2874	 2.5456250000e+002	 5.57887e-002
2875	 2.5462500000e+002	 4.53449e-002
2876	 2.5468750000e+002	 1.96111e-002
2877	 2.5475000000e+002	 2.38541e-002
2878	 2.5481250000e+002	 3.27810e-002
2879	 2.5487500000e+002	 2.43897e-002
2880	 2.5493750000e+002	 3.32990e-002
2881	 2.5500000000e+002	 2.59424e-002
2882	 2.5506250000e+002	 1.51570e-002
2883	 2.5512500000e+002	 3.72836e-002
2884	 2.5518750000e+002	 3.21878e-002
2885	 2.5525000000e+002	 1.05491e-002
2886	 2.5531250000e+002	 6.52002e-003
2887	 2.5537500000e+002	 1.45808e-002
2888	 2.5543750000e+002	 2.03709e-002
2889	 2.5550000000e+002	 3.59033e-002
2890	 2.5556250000e+002	 4.15847e-002
2891	 2.5562500000e+002	 3.33272e-002
2892	 2.5568750000e+002	 6.27979e-002
2893	 2.5575000000e+002	 7.71871e-002
2894	 2.5581250000e+002	 6.95943e-002
2895	 2.5587500000e+002	 6.00095e-002
2896	 2.5593750000e+002	 2.69104e-002
2897	 2.5600000000e+002	 1.82960e-002
2898	 2.5606250000e+002	 1.19372e-002
2899	 2.5612500000e+002	 1.40329e-002
2900	 2.5618750000e+002	 3.04219e-002
2901	 2.5625000000e+002	 5.58988e-002
2902	 2.5631250000e+002	 7.09574e-002
2903	 2.5637500000e+002	 3.90486e-002
2904	 2.5643750000e+002	 6.39095e-002
2905	 2.5650000000e+002	 4.15170e-002
2906	 2.5656250000e+002	 2.81880e-002
2907	 2.5662500000e+002	 5.97714e-002
2908	 2.5668750000e+002	 5.94528e-002
2909	 2.5675000000e+002	 3.40550e-002
2910	 2.5681250000e+002	 1.65971e-002
2911	 2.5687500000e+002	 4.08591e-002
2912	 2.5693750000e+002	 8.49411e-002
2913	 2.5700000000e+002	 7.52913e-002
2914	 2.5706250000e+002	 8.79090e-002
2915	 2.5712500000e+002	 1.19848e-001
2916	 2.5718750000e+002	 4.58872e-002
2917	 2.5725000000e+002	 3.50916e-002
2918	 2.5731250000e+002	 6.75590e-002
2919	 2.5737500000e+002	 5.64853e-002
2920	 2.5743750000e+002	 3.83596e-002
2921	 2.5750000000e+002	 3.43545e-002
2922	 2.5756250000e+002	 1.72018e-002
2923	 2.5762500000e+002	 1.05452e-002
2924	 2.5768750000e+002	 4.00155e-002
2925	 2.5775000000e+002	 9.18896e-002
2926	 2.5781250000e+002	 7.33868e-002
2927	 2.5787500000e+002	 7.00414e-002
2928	 2.5793750000e+002	 7.87198e-002
2929	 2.5800000000e+002	 4.10973e-002
2930	 2.5806250000e+002	 2.42180e-002
2931	 2.5812500000e+002	 3.40922e-002
2932	 2.5818750000e+002	 4.48894e-002
2933	 2.5825000000e+002	 8.68589e-002
2934	 2.5831250000e+002	 7.08985e-002
2935	 2.5837500000e+002	 5.29270e-002
2936	 2.5843750000e+002	 3.02027e-002
2937	 2.5850000000e+002	 9.82992e-002
2938	 2.5856250000e+002	 1.33439e-001
2939	 2.5862500000e+002	 2.13227e-001
2940	 2.5868750000e+002	 1.88478e-001
2941	 2.5875000000e+002	 6.80677e-002
2942	 2.5881250000e+002	 6.92642e-002
2943	 2.5887500000e+002	 1.37865e-001
2944	 2.5893750000e+002	 1.04522e-001
2945	 2.5900000000e+002	 5.68217e-002
2946	 2.5906250000e+002	 5.35411e-002
2947	 2.5912500000e+002	 1.01563e-001
2948	 2.5918750000e+002	 1.52682e-001
2949	 2.5925000000e+002	 1.33930e-001
2950	 2.5931250000e+002	 7.38811e-002
2951	 2.5937500000e+002	 8.28050e-002
2952	 2.5943750000e+002	 9.05228e-002
2953	 2.5950000000e+002	 9.81023e-002
2954	 2.5956250000e+002	 7.72002e-002
2955	 2.5962500000e+002	 4.41912e-002
2956	 2.5968750000e+002	 7.50139e-002
2957	 2.5975000000e+002	 1.03454e-001
2958	 2.5981250000e+002	 1.18039e-001
2959	 2.5987500000e+002	 2.61394e-001
2960	 2.5993750000e+002	 1.10703e-001
2961	 2.6000000000e+002	 7.32204e-002
2962	 2.6006250000e+002	 2.24346e-001
2963	 2.6012500000e+002	 1.99492e-001
2964	 2.6018750000e+002	 4.48320e-002
2965	 2.6025000000e+002	 5.14747e-002
2966	 2.6031250000e+002	 8.48250e-002
2967	 2.6037500000e+002	 1.48444e-001
2968	 2.6043750000e+002	 8.82290e-002
2969	 2.6050000000e+002	 7.80240e-002
2970	 2.6056250000e+002	 9.93314e-002
2971	 2.6062500000e+002	 1.43030e-001
2972	 2.6068750000e+002	 2.68712e-001
2973	 2.6075000000e+002	 2.56890e-001
2974	 2.6081250000e+002	 3.40099e-001
2975	 2.6087500000e+002	 1.76331e-001
2976	 2.6093750000e+002	 4.44156e-002
2977	 2.6100000000e+002	 6.99763e-002
2978	 2.6106250000e+002	 8.65741e-002
2979	 2.6112500000e+002	 3.62413e-002
2980	 2.6118750000e+002	 8.86211e-002
2981	 2.6125000000e+002	 2.91788e-001
2982	 2.6131250000e+002	 2.94731e-001
2983	 2.6137500000e+002	 8.79909e-002
2984	 2.6143750000e+002	 9.64618e-002
2985	 2.6150000000e+002	 1.66289e-001
2986	 2.6156250000e+002	 1.04965e-001
2987	 2.6162500000e+002	 6.67870e-002
2988	 2.6168750000e+002	 1.04415e-001
2989	 2.6175000000e+002	 1.60210e-001
2990	 2.6181250000e+002	 1.90230e-001
2991	 2.6187500000e+002	 1.68000e-001
2992	 2.6193750000e+002	 1.74796e-001
2993	 2.6200000000e+002	 1.05620e-001
2994	 2.6206250000e+002	 1.12377e-001
2995	 2.6212500000e+002	 1.79440e-001
2996	 2.6218750000e+002	 1.02053e-001
2997	 2.6225000000e+002	 1.60763e-001
2998	 2.6231250000e+002	 4.19245e-001
2999	 2.6237500000e+002	 1.36379e-001
3000	 2.6243750000e+002	 7.49458e-002
3001	 2.6250000000e+002	 2.55843e-001
3002	 2.6256250000e+002	 4.14386e-001
3003	 2.6262500000e+002	 3.00613e-001
3004	 2.6268750000e+002	 1.23124e-001
3005	 2.6275000000e+002	 1.43057e-001
3006	 2.6281250000e+002	 4.17699e-001
3007	 2.6287500000e+002	 2.64463e-001
3008	 2.6293750000e+002	 1.73922e-001
3009	 2.6300000000e+002	 1.53655e-001
3010	 2.6306250000e+002	 1.93291e-001
3011	 2.6312500000e+002	 4.15381e-001
3012	 2.6318750000e+002	 3.01316e-001
3013	 2.6325000000e+002	 1.57186e-001
3014	 2.6331250000e+002	 7.35456e-002
3015	 2.6337500000e+002	 8.90968e-002
3016	 2.6343750000e+002	 1.16988e-001
3017	 2.6350000000e+002	 1.15959e-001
3018	 2.6356250000e+002	 3.38123e-002
3019	 2.6362500000e+002	 8.20247e-002
3020	 2.6368750000e+002	 1.74748e-001
3021	 2.6375000000e+002	 1.08961e-001
3022	 2.6381250000e+002	 2.61016e-001
3023	 2.6387500000e+002	 4.90887e-001
3024	 2.6393750000e+002	 5.08991e-001
3025	 2.6400000000e+002	 5.05873e-001
3026	 2.6406250000e+002	 2.90852e-001
3027	 2.6412500000e+002	 3.66913e-001
3028	 2.6418750000e+002	 3.54428e-001
3029	 2.6425000000e+002	 5.58786e-001
3030	 2.6431250000e+002	 5.38634e-001
3031	 2.6437500000e+002	 2.00977e-001
3032	 2.6443750000e+002	 2.04655e-001
3033	 2.6450000000e+002	 1.96922e-001
3034	 2.6456250000e+002	 3.19736e-001
3035	 2.6462500000e+002	 3.23662e-001
3036	 2.6468750000e+002	 1.57473e-001
3037	 2.6475000000e+002	 2.35005e-001
3038	 2.6481250000e+002	 4.79069e-001
3039	 2.6487500000e+002	 8.49025e-001
3040	 2.6493750000e+002	 5.68339e-001
3041	 2.6500000000e+002	 3.48267e-001
3042	 2.6506250000e+002	 2.08331e-001
3043	 2.6512500000e+002	 3.39787e-001
3044	 2.6518750000e+002	 4.63295e-001
3045	 2.6525000000e+002	 3.91810e-001
3046	 2.6531250000e+002	 4.02782e-001
3047	 2.6537500000e+002	 5.03508e-001
3048	 2.6543750000e+002	 4.23508e-001
3049	 2.6550000000e+002	 4.77204e-001
3050	 2.6556250000e+002	 4.45878e-001
3051	 2.6562500000e+002	 5.64748e-001
3052	 2.6568750000e+002	 4.55840e-001
3053	 2.6575000000e+002	 5.12710e-001
3054	 2.6581250000e+002	 3.56593e-001
3055	 2.6587500000e+002	 1.93441e-001
3056	 2.6593750000e+002	 3.89959e-001
3057	 2.6600000000e+002	 6.99884e-001
3058	 2.6606250000e+002	 8.24342e-001
3059	 2.6612500000e+002	 1.17643e+000
3060	 2.6618750000e+002	 1.04814e+000
3061	 2.6625000000e+002	 5.62229e-001
3062	 2.6631250000e+002	 6.01267e-001
3063	 2.6637500000e+002	 7.45154e-001
3064	 2.6643750000e+002	 7.77553e-001
3065	 2.6650000000e+002	 6.86381e-001
3066	 2.6656250000e+002	 4.64187e-001
3067	 2.6662500000e+002	 6.13814e-001
3068	 2.6668750000e+002	 5.82428e-001
3069	 2.6675000000e+002	 5.48507e-001
3070	 2.6681250000e+002	 9.39760e-001
3071	 2.6687500000e+002	 7.38052e-001
3072	 2.6693750000e+002	 5.62383e-001
3073	 2.6700000000e+002	 8.62117e-001
3074	 2.6706250000e+002	 6.82813e-001
3075	 2.6712500000e+002	 5.50815e-001
3076	 2.6718750000e+002	 6.69979e-001
3077	 2.6725000000e+002	 5.48644e-001
3078	 2.6731250000e+002	 5.83820e-001
3079	 2.6737500000e+002	 7.66045e-001
3080	 2.6743750000e+002	 1.15849e+000
3081	 2.6750000000e+002	 6.26263e-001
3082	 2.6756250000e+002	 1.07018e+000
3083	 2.6762500000e+002	 1.45311e+000
3084	 2.6768750000e+002	 1.56346e+000
3085	 2.6775000000e+002	 9.80122e-001
3086	 2.6781250000e+002	 5.98427e-001
3087	 2.6787500000e+002	 8.26384e-001
3088	 2.6793750000e+002	 6.12537e-001
3089	 2.6800000000e+002	 8.17853e-001
3090	 2.6806250000e+002	 7.55342e-001
3091	 2.6812500000e+002	 7.74729e-001
3092	 2.6818750000e+002	 1.35645e+000
3093	 2.6825000000e+002	 1.21260e+000
3094	 2.6831250000e+002	 6.07780e-001
3095	 2.6837500000e+002	 1.01545e+000
3096	 2.6843750000e+002	 9.60065e-001
3097	 2.6850000000e+002	 6.46181e-001
3098	 2.6856250000e+002	 4.26800e-001
3099	 2.6862500000e+002	 7.80433e-001
3100	 2.6868750000e+002	 9.88644e-001
3101	 2.6875000000e+002	 5.29962e-001
3102	 2.6881250000e+002	 2.97970e-001
3103	 2.6887500000e+002	 2.52170e-001
3104	 2.6893750000e+002	 1.18882e-001
3105	 2.6900000000e+002	 1.23507e-001
3106	 2.6906250000e+002	 2.83555e-001
3107	 2.6912500000e+002	 1.64118e-001
3108	 2.6918750000e+002	 2.11160e-001
3109	 2.6925000000e+002	 3.54668e-001
3110	 2.6931250000e+002	 3.98143e-001
3111	 2.6937500000e+002	 4.80683e-001
3112	 2.6943750000e+002	 1.51375e-001
3113	 2.6950000000e+002	 8.39700e-002
3114	 2.6956250000e+002	 1.08974e-001
3115	 2.6962500000e+002	 1.40876e-001
3116	 2.6968750000e+002	 2.06516e-001
3117	 2.6975000000e+002	 1.28128e-001
3118	 2.6981250000e+002	 1.94001e-001
3119	 2.6987500000e+002	 3.07268e-001
3120	 2.6993750000e+002	 1.96211e-001
3121	 2.7000000000e+002	 2.75572e-001
3122	 2.7006250000e+002	 3.70528e-001
3123	 2.7012500000e+002	 2.72601e-001
3124	 2.7018750000e+002	 3.23329e-001
3125	 2.7025000000e+002	 2.91751e-001
3126	 2.7031250000e+002	 1.49557e-001
3127	 2.7037500000e+002	 1.80073e-001
3128	 2.7043750000e+002	 1.27855e-001
3129	 2.7050000000e+002	 1.14265e-001
3130	 2.7056250000e+002	 6.87446e-002
3131	 2.7062500000e+002	 9.07099e-002
3132	 2.7068750000e+002	 1.07211e-001
3133	 2.7075000000e+002	 9.03432e-002
3134	 2.7081250000e+002	 1.13461e-001
3135	 2.7087500000e+002	 1.63414e-001
3136	 2.7093750000e+002	 1.33334e-001
3137	 2.7100000000e+002	 2.54124e-001
3138	 2.7106250000e+002	 2.05241e-001
3139	 2.7112500000e+002	 2.78562e-001
3140	 2.7118750000e+002	 3.55953e-001
3141	 2.7125000000e+002	 1.65880e-001
3142	 2.7131250000e+002	 8.14435e-002
3143	 2.7137500000e+002	 1.80080e-001
3144	 2.7143750000e+002	 1.37650e-001
3145	 2.7150000000e+002	 7.22001e-002
3146	 2.7156250000e+002	 9.40459e-002
3147	 2.7162500000e+002	 1.86464e-001
3148	 2.7168750000e+002	 2.16081e-001
3149	 2.7175000000e+002	 1.80071e-001
3150	 2.7181250000e+002	 1.60429e-001
3151	 2.7187500000e+002	 2.75183e-001
3152	 2.7193750000e+002	 1.97793e-001
3153	 2.7200000000e+002	 1.62643e-001
3154	 2.7206250000e+002	 1.13288e-001
3155	 2.7212500000e+002	 4.95423e-002
3156	 2.7218750000e+002	 1.33661e-001
3157	 2.7225000000e+002	 1.41742e-001
3158	 2.7231250000e+002	 1.53816e-001
3159	 2.7237500000e+002	 2.58660e-001
3160	 2.7243750000e+002	 1.20121e-001
3161	 2.7250000000e+002	 9.36340e-002
3162	 2.7256250000e+002	 5.06388e-002
3163	 2.7262500000e+002	 5.61103e-002
3164	 2.7268750000e+002	 9.50611e-002
3165	 2.7275000000e+002	 7.81838e-002
3166	 2.7281250000e+002	 1.61921e-001
3167	 2.7287500000e+002	 1.23083e-001
3168	 2.7293750000e+002	 1.49400e-001
3169	 2.7300000000e+002	 2.56700e-001
3170	 2.7306250000e+002	 1.82010e-001
3171	 2.7312500000e+002	 1.01639e-001
3172	 2.7318750000e+002	 1.04077e-001
3173	 2.7325000000e+002	 8.83073e-002
3174	 2.7331250000e+002	 1.18595e-001
3175	 2.7337500000e+002	 6.43513e-002
3176	 2.7343750000e+002	 3.19652e-002
3177	 2.7350000000e+002	 7.83289e-002
3178	 2.7356250000e+002	 8.72093e-002
3179	 2.7362500000e+002	 1.08956e-001
3180	 2.7368750000e+002	 6.49130e-002
3181	 2.7375000000e+002	 1.44478e-001
3182	 2.7381250000e+002	 2.23193e-001
3183	 2.7387500000e+002	 1.66778e-001
3184	 2.7393750000e+002	 7.32148e-002
3185	 2.7400000000e+002	 2.42802e-002
3186	 2.7406250000e+002	 2.98143e-002
3187	 2.7412500000e+002	 3.43759e-002
3188	 2.7418750000e+002	 2.47191e-002
3189	 2.7425000000e+002	 6.71489e-002
3190	 2.7431250000e+002	 6.10636e-002
3191	 2.7437500000e+002	 6.19589e-002
3192	 2.7443750000e+002	 1.36240e-001
3193	 2.7450000000e+002	 1.08233e-001
3194	 2.7456250000e+002	 3.55939e-002
3195	 2.7462500000e+002	 8.02138e-002
3196	 2.7468750000e+002	 1.01635e-001
3197	 2.7475000000e+002	 6.90431e-002
3198	 2.7481250000e+002	 5.16427e-002
3199	 2.7487500000e+002	 5.85458e-002
3200	 2.7493750000e+002	 5.32102e-002
3201	 2.7500000000e+002	 5.59236e-002
TagsBegin:	 	 
OverLoad:	 	False
AverageNumber: []	 	 3.50000e+001
OverLoadRatio: []	 	 1.19209e-007
TagsEnd:	 	 
TagScalesBegin:	 	 
TagScalesEnd:	 	 
