Header Size:	 78	 
Pulse Version:	 42	 
Decimal Symbol:	.	 
Date Format:	dd-MM-yyyy	 
Time Format:	HH:mm:ss:mmm	 
Data Type:	Real	 
Slice:	False	 
Z-Axis type:	Linear	 
Z-Axis size:	1	 
Z-Axis unit:	 	 
Z-Axis first value:	 0.0000000000e+000	 
Z-Axis delta:	 1.0000000000e+000	 
X-Axis type:	Linear	 
X-Axis size:	3201	 
X-Axis unit:	Hz	 
X-Axis first value:	 7.5000000000e+001	 
X-Axis delta:	 6.2500000000e-002	 
	 	 
AmplitudeUnit:	Pa	 
Analyzer:	FFT_Spectrum_Averaging	 
AnalyzerName:	FFT Analyzer	 
	 	 
	 	 
Bipolar:	False	 
CenterFrequency:	 1.7500000000e+002	 
	 	 
	 	 
	 	 
	 	 
dBReference:	 4.0000000000e-010	 
	 	 
	 	 
	 	 
Domain:	1	 
Function:	Autospectrum	 
	 	 
InputRange:	 2.2376582278e+002	 
	 	 
	 	 
MultiBufferName:	Input	 
NBW:	 1.5000000000e+000	 
	 	 
OverlapFailed:	False	 
Overrun:	False	 
Power:	True	 
PowerUnit:	Pa²	 
	 	 
RecordLength:	 1.6000000000e+001	 
ReducedSize:	True	 
	 	 
	 	 
	 	 
	 	 
	 	 
SamplingRatio:	 1.2800000000e+000	 
Signal:	p_B_source	 
	 	 
SignalUnit:	Pa	 
	 	 
	 	 
	 	 
Title:	Autospectrum(p_B_source) - Input	 
Title1:	Working : Input : Input : FFT Analyzer	 
	 	 
	 	 
Weight:	0	 
ZoomOn:	True	 
	 	 
TemplateName:	Working	 
MeasurementName:	Input	 
MeasurementSlice:	False	 
	 	 
DeltaFrequency:	 6.2500000000e-002	 
	 	 
EnvelopeOn:	False	 
	 	 
	 	 
	 	 
Z-index:	 	1
Date:	 	05-03-2025
Time:	 	12:24:48:943
Relative time:	 	 0.00000e+000
Z-axis:	 	 0.0000000000e+000
1	 7.5000000000e+001	 7.53722e-004
2	 7.5062500000e+001	 4.76606e-004
3	 7.5125000000e+001	 9.30889e-004
4	 7.5187500000e+001	 1.39295e-003
5	 7.5250000000e+001	 1.11215e-003
6	 7.5312500000e+001	 1.28723e-003
7	 7.5375000000e+001	 1.74524e-003
8	 7.5437500000e+001	 1.24560e-003
9	 7.5500000000e+001	 1.02274e-003
10	 7.5562500000e+001	 7.21287e-004
11	 7.5625000000e+001	 9.03763e-004
12	 7.5687500000e+001	 1.30682e-003
13	 7.5750000000e+001	 3.20803e-003
14	 7.5812500000e+001	 3.19034e-003
15	 7.5875000000e+001	 1.23443e-003
16	 7.5937500000e+001	 2.76007e-003
17	 7.6000000000e+001	 2.28840e-003
18	 7.6062500000e+001	 8.96321e-004
19	 7.6125000000e+001	 9.50013e-004
20	 7.6187500000e+001	 4.71524e-004
21	 7.6250000000e+001	 8.76566e-004
22	 7.6312500000e+001	 1.23052e-003
23	 7.6375000000e+001	 1.23098e-003
24	 7.6437500000e+001	 1.35530e-003
25	 7.6500000000e+001	 1.03663e-003
26	 7.6562500000e+001	 6.70643e-004
27	 7.6625000000e+001	 7.27764e-004
28	 7.6687500000e+001	 7.46131e-004
29	 7.6750000000e+001	 1.08118e-003
30	 7.6812500000e+001	 1.05443e-003
31	 7.6875000000e+001	 1.00243e-003
32	 7.6937500000e+001	 7.19557e-004
33	 7.7000000000e+001	 3.30029e-004
34	 7.7062500000e+001	 5.19336e-004
35	 7.7125000000e+001	 6.51239e-004
36	 7.7187500000e+001	 9.42284e-004
37	 7.7250000000e+001	 1.59855e-003
38	 7.7312500000e+001	 1.92395e-003
39	 7.7375000000e+001	 7.03931e-004
40	 7.7437500000e+001	 1.10376e-003
41	 7.7500000000e+001	 6.66109e-004
42	 7.7562500000e+001	 1.16370e-004
43	 7.7625000000e+001	 2.89823e-004
44	 7.7687500000e+001	 1.12729e-003
45	 7.7750000000e+001	 1.66282e-003
46	 7.7812500000e+001	 1.59856e-003
47	 7.7875000000e+001	 9.57624e-004
48	 7.7937500000e+001	 5.39527e-004
49	 7.8000000000e+001	 2.07315e-004
50	 7.8062500000e+001	 2.60367e-004
51	 7.8125000000e+001	 8.48500e-004
52	 7.8187500000e+001	 1.44598e-003
53	 7.8250000000e+001	 1.47959e-003
54	 7.8312500000e+001	 1.17619e-003
55	 7.8375000000e+001	 1.89958e-003
56	 7.8437500000e+001	 2.05123e-003
57	 7.8500000000e+001	 1.40341e-003
58	 7.8562500000e+001	 7.95758e-004
59	 7.8625000000e+001	 8.67736e-004
60	 7.8687500000e+001	 8.62928e-004
61	 7.8750000000e+001	 1.08312e-003
62	 7.8812500000e+001	 1.04625e-003
63	 7.8875000000e+001	 1.46237e-003
64	 7.8937500000e+001	 6.33478e-004
65	 7.9000000000e+001	 4.21720e-004
66	 7.9062500000e+001	 8.11949e-004
67	 7.9125000000e+001	 3.18925e-004
68	 7.9187500000e+001	 6.79575e-004
69	 7.9250000000e+001	 1.77724e-003
70	 7.9312500000e+001	 1.11976e-003
71	 7.9375000000e+001	 1.02764e-003
72	 7.9437500000e+001	 7.86244e-004
73	 7.9500000000e+001	 1.06326e-003
74	 7.9562500000e+001	 3.22162e-004
75	 7.9625000000e+001	 1.29135e-003
76	 7.9687500000e+001	 3.06383e-003
77	 7.9750000000e+001	 1.98225e-003
78	 7.9812500000e+001	 8.67302e-004
79	 7.9875000000e+001	 7.48394e-004
80	 7.9937500000e+001	 6.01221e-004
81	 8.0000000000e+001	 6.85018e-004
82	 8.0062500000e+001	 5.90657e-004
83	 8.0125000000e+001	 7.93294e-004
84	 8.0187500000e+001	 1.55868e-003
85	 8.0250000000e+001	 1.25346e-003
86	 8.0312500000e+001	 8.52762e-004
87	 8.0375000000e+001	 4.80951e-004
88	 8.0437500000e+001	 7.65702e-004
89	 8.0500000000e+001	 1.78882e-003
90	 8.0562500000e+001	 1.17781e-003
91	 8.0625000000e+001	 1.53926e-003
92	 8.0687500000e+001	 1.08954e-003
93	 8.0750000000e+001	 9.86533e-004
94	 8.0812500000e+001	 1.12401e-003
95	 8.0875000000e+001	 1.95316e-003
96	 8.0937500000e+001	 1.42426e-003
97	 8.1000000000e+001	 3.70372e-004
98	 8.1062500000e+001	 3.86697e-004
99	 8.1125000000e+001	 6.22147e-004
100	 8.1187500000e+001	 6.36229e-004
101	 8.1250000000e+001	 1.06966e-003
102	 8.1312500000e+001	 7.64402e-004
103	 8.1375000000e+001	 6.36856e-004
104	 8.1437500000e+001	 5.56429e-004
105	 8.1500000000e+001	 1.01815e-003
106	 8.1562500000e+001	 1.57570e-003
107	 8.1625000000e+001	 1.34790e-003
108	 8.1687500000e+001	 1.07512e-003
109	 8.1750000000e+001	 1.66342e-003
110	 8.1812500000e+001	 1.69295e-003
111	 8.1875000000e+001	 1.60440e-003
112	 8.1937500000e+001	 8.42615e-004
113	 8.2000000000e+001	 5.07973e-004
114	 8.2062500000e+001	 9.60279e-004
115	 8.2125000000e+001	 1.83089e-003
116	 8.2187500000e+001	 2.38350e-003
117	 8.2250000000e+001	 2.22280e-003
118	 8.2312500000e+001	 2.74238e-003
119	 8.2375000000e+001	 1.85762e-003
120	 8.2437500000e+001	 1.09390e-003
121	 8.2500000000e+001	 6.22985e-004
122	 8.2562500000e+001	 1.27379e-003
123	 8.2625000000e+001	 1.22601e-003
124	 8.2687500000e+001	 1.01127e-003
125	 8.2750000000e+001	 1.35228e-003
126	 8.2812500000e+001	 1.73300e-003
127	 8.2875000000e+001	 1.93308e-003
128	 8.2937500000e+001	 5.49708e-004
129	 8.3000000000e+001	 8.83136e-004
130	 8.3062500000e+001	 7.16108e-004
131	 8.3125000000e+001	 5.33558e-004
132	 8.3187500000e+001	 9.05959e-004
133	 8.3250000000e+001	 9.15250e-004
134	 8.3312500000e+001	 9.53163e-004
135	 8.3375000000e+001	 1.58846e-003
136	 8.3437500000e+001	 1.89745e-003
137	 8.3500000000e+001	 1.10241e-003
138	 8.3562500000e+001	 7.34639e-004
139	 8.3625000000e+001	 1.05516e-003
140	 8.3687500000e+001	 1.37128e-003
141	 8.3750000000e+001	 1.11772e-003
142	 8.3812500000e+001	 8.76070e-004
143	 8.3875000000e+001	 1.12876e-003
144	 8.3937500000e+001	 1.33128e-003
145	 8.4000000000e+001	 8.69270e-004
146	 8.4062500000e+001	 3.61557e-004
147	 8.4125000000e+001	 5.67177e-004
148	 8.4187500000e+001	 6.44547e-004
149	 8.4250000000e+001	 1.09012e-003
150	 8.4312500000e+001	 1.59477e-003
151	 8.4375000000e+001	 5.72921e-004
152	 8.4437500000e+001	 5.95323e-004
153	 8.4500000000e+001	 6.66391e-004
154	 8.4562500000e+001	 1.02954e-003
155	 8.4625000000e+001	 6.94523e-004
156	 8.4687500000e+001	 1.72863e-003
157	 8.4750000000e+001	 2.34643e-003
158	 8.4812500000e+001	 1.94677e-003
159	 8.4875000000e+001	 1.56893e-003
160	 8.4937500000e+001	 1.17813e-003
161	 8.5000000000e+001	 1.19347e-003
162	 8.5062500000e+001	 1.44911e-003
163	 8.5125000000e+001	 1.32901e-003
164	 8.5187500000e+001	 1.50625e-003
165	 8.5250000000e+001	 5.11267e-004
166	 8.5312500000e+001	 1.98854e-004
167	 8.5375000000e+001	 1.03816e-003
168	 8.5437500000e+001	 1.24316e-003
169	 8.5500000000e+001	 4.09986e-004
170	 8.5562500000e+001	 2.83820e-004
171	 8.5625000000e+001	 6.83594e-004
172	 8.5687500000e+001	 5.17296e-004
173	 8.5750000000e+001	 6.88361e-004
174	 8.5812500000e+001	 8.08328e-004
175	 8.5875000000e+001	 2.42942e-004
176	 8.5937500000e+001	 4.39256e-004
177	 8.6000000000e+001	 5.89028e-004
178	 8.6062500000e+001	 5.56182e-004
179	 8.6125000000e+001	 6.33696e-004
180	 8.6187500000e+001	 7.96048e-004
181	 8.6250000000e+001	 1.18389e-003
182	 8.6312500000e+001	 1.30720e-003
183	 8.6375000000e+001	 1.01714e-003
184	 8.6437500000e+001	 6.20958e-004
185	 8.6500000000e+001	 1.24893e-003
186	 8.6562500000e+001	 2.42599e-003
187	 8.6625000000e+001	 1.59116e-003
188	 8.6687500000e+001	 1.04981e-003
189	 8.6750000000e+001	 9.90816e-004
190	 8.6812500000e+001	 9.17059e-004
191	 8.6875000000e+001	 1.35016e-003
192	 8.6937500000e+001	 8.51371e-004
193	 8.7000000000e+001	 7.71688e-004
194	 8.7062500000e+001	 1.16394e-003
195	 8.7125000000e+001	 8.70712e-004
196	 8.7187500000e+001	 2.94405e-003
197	 8.7250000000e+001	 2.10885e-003
198	 8.7312500000e+001	 1.23078e-003
199	 8.7375000000e+001	 1.33787e-003
200	 8.7437500000e+001	 1.32711e-003
201	 8.7500000000e+001	 1.20756e-003
202	 8.7562500000e+001	 1.93089e-003
203	 8.7625000000e+001	 2.87935e-003
204	 8.7687500000e+001	 2.05692e-003
205	 8.7750000000e+001	 1.36373e-003
206	 8.7812500000e+001	 1.17223e-003
207	 8.7875000000e+001	 2.18558e-003
208	 8.7937500000e+001	 2.69405e-003
209	 8.8000000000e+001	 2.18753e-003
210	 8.8062500000e+001	 7.62802e-004
211	 8.8125000000e+001	 1.69257e-003
212	 8.8187500000e+001	 1.69506e-003
213	 8.8250000000e+001	 1.07288e-003
214	 8.8312500000e+001	 2.24673e-003
215	 8.8375000000e+001	 1.63201e-003
216	 8.8437500000e+001	 1.09936e-003
217	 8.8500000000e+001	 6.14621e-004
218	 8.8562500000e+001	 2.13249e-003
219	 8.8625000000e+001	 2.90266e-003
220	 8.8687500000e+001	 1.65360e-003
221	 8.8750000000e+001	 1.02686e-003
222	 8.8812500000e+001	 1.71759e-003
223	 8.8875000000e+001	 3.40333e-003
224	 8.8937500000e+001	 1.67115e-003
225	 8.9000000000e+001	 1.18623e-003
226	 8.9062500000e+001	 1.51761e-003
227	 8.9125000000e+001	 2.33840e-003
228	 8.9187500000e+001	 2.05042e-003
229	 8.9250000000e+001	 1.39305e-003
230	 8.9312500000e+001	 2.40593e-003
231	 8.9375000000e+001	 1.42954e-003
232	 8.9437500000e+001	 1.00600e-003
233	 8.9500000000e+001	 2.30928e-003
234	 8.9562500000e+001	 3.67843e-003
235	 8.9625000000e+001	 1.76186e-003
236	 8.9687500000e+001	 1.24769e-003
237	 8.9750000000e+001	 1.45740e-003
238	 8.9812500000e+001	 1.53366e-003
239	 8.9875000000e+001	 1.93548e-003
240	 8.9937500000e+001	 2.11260e-003
241	 9.0000000000e+001	 1.51697e-003
242	 9.0062500000e+001	 1.39671e-003
243	 9.0125000000e+001	 8.06916e-004
244	 9.0187500000e+001	 6.41385e-004
245	 9.0250000000e+001	 9.23551e-004
246	 9.0312500000e+001	 9.72304e-004
247	 9.0375000000e+001	 9.14116e-004
248	 9.0437500000e+001	 1.66869e-003
249	 9.0500000000e+001	 2.10057e-003
250	 9.0562500000e+001	 2.55556e-003
251	 9.0625000000e+001	 2.99527e-003
252	 9.0687500000e+001	 1.69443e-003
253	 9.0750000000e+001	 1.51844e-003
254	 9.0812500000e+001	 1.27665e-003
255	 9.0875000000e+001	 9.51544e-004
256	 9.0937500000e+001	 2.77645e-003
257	 9.1000000000e+001	 3.31257e-003
258	 9.1062500000e+001	 1.45001e-003
259	 9.1125000000e+001	 7.79704e-004
260	 9.1187500000e+001	 2.51047e-003
261	 9.1250000000e+001	 2.36036e-003
262	 9.1312500000e+001	 9.39667e-004
263	 9.1375000000e+001	 1.09725e-003
264	 9.1437500000e+001	 1.62732e-003
265	 9.1500000000e+001	 1.20700e-003
266	 9.1562500000e+001	 1.13902e-003
267	 9.1625000000e+001	 2.56912e-003
268	 9.1687500000e+001	 3.05818e-003
269	 9.1750000000e+001	 3.15346e-003
270	 9.1812500000e+001	 2.08230e-003
271	 9.1875000000e+001	 1.10605e-003
272	 9.1937500000e+001	 1.34768e-003
273	 9.2000000000e+001	 1.24758e-003
274	 9.2062500000e+001	 5.74462e-004
275	 9.2125000000e+001	 8.33043e-004
276	 9.2187500000e+001	 1.07499e-003
277	 9.2250000000e+001	 1.51077e-003
278	 9.2312500000e+001	 1.58016e-003
279	 9.2375000000e+001	 2.31611e-003
280	 9.2437500000e+001	 1.29303e-003
281	 9.2500000000e+001	 8.54140e-004
282	 9.2562500000e+001	 1.21646e-003
283	 9.2625000000e+001	 1.48157e-003
284	 9.2687500000e+001	 2.23951e-003
285	 9.2750000000e+001	 2.98724e-003
286	 9.2812500000e+001	 3.50290e-003
287	 9.2875000000e+001	 3.85862e-003
288	 9.2937500000e+001	 2.87846e-003
289	 9.3000000000e+001	 1.53391e-003
290	 9.3062500000e+001	 5.50537e-003
291	 9.3125000000e+001	 5.02789e-003
292	 9.3187500000e+001	 3.42812e-003
293	 9.3250000000e+001	 2.19643e-003
294	 9.3312500000e+001	 2.33994e-003
295	 9.3375000000e+001	 3.03673e-003
296	 9.3437500000e+001	 2.33540e-003
297	 9.3500000000e+001	 1.34528e-003
298	 9.3562500000e+001	 1.67952e-003
299	 9.3625000000e+001	 2.30621e-003
300	 9.3687500000e+001	 2.24932e-003
301	 9.3750000000e+001	 2.38781e-003
302	 9.3812500000e+001	 3.10419e-003
303	 9.3875000000e+001	 2.15315e-003
304	 9.3937500000e+001	 3.10207e-003
305	 9.4000000000e+001	 1.83425e-003
306	 9.4062500000e+001	 1.29331e-003
307	 9.4125000000e+001	 2.40182e-003
308	 9.4187500000e+001	 1.36529e-003
309	 9.4250000000e+001	 1.23230e-003
310	 9.4312500000e+001	 2.52942e-003
311	 9.4375000000e+001	 7.30809e-003
312	 9.4437500000e+001	 5.57124e-003
313	 9.4500000000e+001	 1.68767e-003
314	 9.4562500000e+001	 3.89330e-003
315	 9.4625000000e+001	 2.88357e-003
316	 9.4687500000e+001	 1.02696e-003
317	 9.4750000000e+001	 2.56778e-003
318	 9.4812500000e+001	 4.49975e-003
319	 9.4875000000e+001	 2.97096e-003
320	 9.4937500000e+001	 2.30346e-003
321	 9.5000000000e+001	 3.44379e-003
322	 9.5062500000e+001	 4.57536e-003
323	 9.5125000000e+001	 4.14620e-003
324	 9.5187500000e+001	 4.28776e-003
325	 9.5250000000e+001	 6.58538e-003
326	 9.5312500000e+001	 3.00226e-003
327	 9.5375000000e+001	 4.25410e-003
328	 9.5437500000e+001	 5.13904e-003
329	 9.5500000000e+001	 5.67443e-003
330	 9.5562500000e+001	 4.81953e-003
331	 9.5625000000e+001	 2.34494e-003
332	 9.5687500000e+001	 3.75099e-003
333	 9.5750000000e+001	 5.88489e-003
334	 9.5812500000e+001	 3.36344e-003
335	 9.5875000000e+001	 3.84521e-003
336	 9.5937500000e+001	 5.42672e-003
337	 9.6000000000e+001	 3.89560e-003
338	 9.6062500000e+001	 2.72858e-003
339	 9.6125000000e+001	 3.59027e-003
340	 9.6187500000e+001	 6.48824e-003
341	 9.6250000000e+001	 5.31897e-003
342	 9.6312500000e+001	 2.49653e-003
343	 9.6375000000e+001	 2.88621e-003
344	 9.6437500000e+001	 2.14719e-003
345	 9.6500000000e+001	 2.64073e-003
346	 9.6562500000e+001	 3.29407e-003
347	 9.6625000000e+001	 5.76303e-003
348	 9.6687500000e+001	 3.43289e-003
349	 9.6750000000e+001	 4.82305e-003
350	 9.6812500000e+001	 9.36222e-003
351	 9.6875000000e+001	 8.17975e-003
352	 9.6937500000e+001	 5.67434e-003
353	 9.7000000000e+001	 3.61661e-003
354	 9.7062500000e+001	 5.08145e-003
355	 9.7125000000e+001	 6.85500e-003
356	 9.7187500000e+001	 7.33136e-003
357	 9.7250000000e+001	 6.20437e-003
358	 9.7312500000e+001	 4.40372e-003
359	 9.7375000000e+001	 4.97241e-003
360	 9.7437500000e+001	 2.94958e-003
361	 9.7500000000e+001	 7.78130e-003
362	 9.7562500000e+001	 9.24839e-003
363	 9.7625000000e+001	 4.03434e-003
364	 9.7687500000e+001	 4.44588e-003
365	 9.7750000000e+001	 7.05478e-003
366	 9.7812500000e+001	 6.41089e-003
367	 9.7875000000e+001	 7.40598e-003
368	 9.7937500000e+001	 5.51426e-003
369	 9.8000000000e+001	 8.78365e-003
370	 9.8062500000e+001	 4.51731e-003
371	 9.8125000000e+001	 2.64908e-003
372	 9.8187500000e+001	 4.97774e-003
373	 9.8250000000e+001	 1.59444e-003
374	 9.8312500000e+001	 2.45731e-003
375	 9.8375000000e+001	 5.57358e-003
376	 9.8437500000e+001	 2.96142e-003
377	 9.8500000000e+001	 4.65889e-003
378	 9.8562500000e+001	 8.73401e-003
379	 9.8625000000e+001	 5.70172e-003
380	 9.8687500000e+001	 5.55022e-003
381	 9.8750000000e+001	 3.43822e-003
382	 9.8812500000e+001	 3.57711e-003
383	 9.8875000000e+001	 9.94461e-003
384	 9.8937500000e+001	 1.01386e-002
385	 9.9000000000e+001	 7.59907e-003
386	 9.9062500000e+001	 6.23289e-003
387	 9.9125000000e+001	 8.50183e-003
388	 9.9187500000e+001	 3.56084e-003
389	 9.9250000000e+001	 1.17623e-002
390	 9.9312500000e+001	 7.96153e-003
391	 9.9375000000e+001	 1.74360e-003
392	 9.9437500000e+001	 3.24720e-003
393	 9.9500000000e+001	 5.72852e-003
394	 9.9562500000e+001	 3.29610e-003
395	 9.9625000000e+001	 3.07183e-003
396	 9.9687500000e+001	 6.51343e-003
397	 9.9750000000e+001	 9.17489e-003
398	 9.9812500000e+001	 3.07650e-003
399	 9.9875000000e+001	 4.74019e-003
400	 9.9937500000e+001	 4.28552e-003
401	 1.0000000000e+002	 5.53532e-003
402	 1.0006250000e+002	 4.82344e-003
403	 1.0012500000e+002	 6.30973e-003
404	 1.0018750000e+002	 5.63720e-003
405	 1.0025000000e+002	 7.87966e-003
406	 1.0031250000e+002	 5.23406e-003
407	 1.0037500000e+002	 7.99170e-003
408	 1.0043750000e+002	 1.19152e-002
409	 1.0050000000e+002	 8.83594e-003
410	 1.0056250000e+002	 3.45755e-003
411	 1.0062500000e+002	 3.73380e-003
412	 1.0068750000e+002	 6.26162e-003
413	 1.0075000000e+002	 1.29177e-002
414	 1.0081250000e+002	 1.23933e-002
415	 1.0087500000e+002	 6.77514e-003
416	 1.0093750000e+002	 8.75899e-003
417	 1.0100000000e+002	 8.33651e-003
418	 1.0106250000e+002	 9.08682e-003
419	 1.0112500000e+002	 6.29025e-003
420	 1.0118750000e+002	 7.29274e-003
421	 1.0125000000e+002	 1.01675e-002
422	 1.0131250000e+002	 8.84399e-003
423	 1.0137500000e+002	 3.32443e-003
424	 1.0143750000e+002	 4.21895e-003
425	 1.0150000000e+002	 3.55807e-003
426	 1.0156250000e+002	 3.71095e-003
427	 1.0162500000e+002	 1.15879e-002
428	 1.0168750000e+002	 8.33537e-003
429	 1.0175000000e+002	 4.86634e-003
430	 1.0181250000e+002	 1.00321e-002
431	 1.0187500000e+002	 1.26745e-002
432	 1.0193750000e+002	 1.08402e-002
433	 1.0200000000e+002	 1.72090e-002
434	 1.0206250000e+002	 1.43203e-002
435	 1.0212500000e+002	 5.55613e-003
436	 1.0218750000e+002	 6.07963e-003
437	 1.0225000000e+002	 4.67066e-003
438	 1.0231250000e+002	 9.63773e-003
439	 1.0237500000e+002	 1.32942e-002
440	 1.0243750000e+002	 1.16973e-002
441	 1.0250000000e+002	 1.94987e-002
442	 1.0256250000e+002	 2.53414e-002
443	 1.0262500000e+002	 1.59314e-002
444	 1.0268750000e+002	 9.95448e-003
445	 1.0275000000e+002	 1.98913e-002
446	 1.0281250000e+002	 2.41410e-002
447	 1.0287500000e+002	 1.64257e-002
448	 1.0293750000e+002	 1.50858e-002
449	 1.0300000000e+002	 1.38004e-002
450	 1.0306250000e+002	 7.66387e-003
451	 1.0312500000e+002	 2.40463e-002
452	 1.0318750000e+002	 4.16027e-002
453	 1.0325000000e+002	 1.63082e-002
454	 1.0331250000e+002	 9.90905e-003
455	 1.0337500000e+002	 1.31169e-002
456	 1.0343750000e+002	 2.60594e-002
457	 1.0350000000e+002	 2.52105e-002
458	 1.0356250000e+002	 2.87453e-002
459	 1.0362500000e+002	 2.35820e-002
460	 1.0368750000e+002	 2.33237e-002
461	 1.0375000000e+002	 1.97303e-002
462	 1.0381250000e+002	 1.85165e-002
463	 1.0387500000e+002	 2.06876e-002
464	 1.0393750000e+002	 1.76580e-002
465	 1.0400000000e+002	 2.35189e-002
466	 1.0406250000e+002	 2.06295e-002
467	 1.0412500000e+002	 1.12037e-002
468	 1.0418750000e+002	 3.99752e-002
469	 1.0425000000e+002	 5.87433e-002
470	 1.0431250000e+002	 4.95654e-002
471	 1.0437500000e+002	 3.36758e-002
472	 1.0443750000e+002	 1.67690e-002
473	 1.0450000000e+002	 9.95561e-003
474	 1.0456250000e+002	 1.23569e-002
475	 1.0462500000e+002	 1.09417e-002
476	 1.0468750000e+002	 2.21443e-002
477	 1.0475000000e+002	 3.58233e-002
478	 1.0481250000e+002	 2.18570e-002
479	 1.0487500000e+002	 4.35344e-002
480	 1.0493750000e+002	 5.72936e-002
481	 1.0500000000e+002	 3.67591e-002
482	 1.0506250000e+002	 2.47230e-002
483	 1.0512500000e+002	 3.60957e-002
484	 1.0518750000e+002	 2.89413e-002
485	 1.0525000000e+002	 3.65316e-002
486	 1.0531250000e+002	 2.87026e-002
487	 1.0537500000e+002	 3.00288e-002
488	 1.0543750000e+002	 4.66724e-002
489	 1.0550000000e+002	 7.24338e-002
490	 1.0556250000e+002	 3.92381e-002
491	 1.0562500000e+002	 2.51704e-002
492	 1.0568750000e+002	 2.66937e-002
493	 1.0575000000e+002	 2.47313e-002
494	 1.0581250000e+002	 1.40681e-002
495	 1.0587500000e+002	 1.30354e-002
496	 1.0593750000e+002	 1.07487e-002
497	 1.0600000000e+002	 4.52815e-002
498	 1.0606250000e+002	 7.87677e-002
499	 1.0612500000e+002	 5.76627e-002
500	 1.0618750000e+002	 3.56360e-002
501	 1.0625000000e+002	 2.53709e-002
502	 1.0631250000e+002	 3.44303e-002
503	 1.0637500000e+002	 6.01459e-002
504	 1.0643750000e+002	 5.13003e-002
505	 1.0650000000e+002	 4.54295e-002
506	 1.0656250000e+002	 8.46022e-002
507	 1.0662500000e+002	 7.01380e-002
508	 1.0668750000e+002	 6.94936e-002
509	 1.0675000000e+002	 3.40223e-002
510	 1.0681250000e+002	 5.14752e-002
511	 1.0687500000e+002	 7.10204e-002
512	 1.0693750000e+002	 1.79418e-001
513	 1.0700000000e+002	 2.06811e-001
514	 1.0706250000e+002	 1.27961e-001
515	 1.0712500000e+002	 1.52829e-001
516	 1.0718750000e+002	 1.34843e-001
517	 1.0725000000e+002	 1.12990e-001
518	 1.0731250000e+002	 1.35572e-001
519	 1.0737500000e+002	 1.21159e-001
520	 1.0743750000e+002	 4.68478e-002
521	 1.0750000000e+002	 9.81426e-002
522	 1.0756250000e+002	 1.62929e-001
523	 1.0762500000e+002	 1.04410e-001
524	 1.0768750000e+002	 1.86768e-001
525	 1.0775000000e+002	 1.68119e-001
526	 1.0781250000e+002	 9.69644e-002
527	 1.0787500000e+002	 1.86048e-001
528	 1.0793750000e+002	 1.55917e-001
529	 1.0800000000e+002	 1.14897e-001
530	 1.0806250000e+002	 6.52101e-002
531	 1.0812500000e+002	 7.29591e-002
532	 1.0818750000e+002	 9.67618e-002
533	 1.0825000000e+002	 1.01857e-001
534	 1.0831250000e+002	 7.04307e-002
535	 1.0837500000e+002	 9.24506e-002
536	 1.0843750000e+002	 6.91696e-002
537	 1.0850000000e+002	 4.94764e-002
538	 1.0856250000e+002	 1.04349e-001
539	 1.0862500000e+002	 1.39757e-001
540	 1.0868750000e+002	 8.40404e-002
541	 1.0875000000e+002	 7.14904e-002
542	 1.0881250000e+002	 1.01574e-001
543	 1.0887500000e+002	 9.68428e-002
544	 1.0893750000e+002	 5.78147e-002
545	 1.0900000000e+002	 9.75860e-002
546	 1.0906250000e+002	 6.90845e-002
547	 1.0912500000e+002	 6.46218e-002
548	 1.0918750000e+002	 1.37214e-001
549	 1.0925000000e+002	 1.30579e-001
550	 1.0931250000e+002	 7.68970e-002
551	 1.0937500000e+002	 1.29874e-001
552	 1.0943750000e+002	 7.42351e-002
553	 1.0950000000e+002	 6.68235e-002
554	 1.0956250000e+002	 1.00289e-001
555	 1.0962500000e+002	 1.27544e-001
556	 1.0968750000e+002	 8.36220e-002
557	 1.0975000000e+002	 4.81352e-002
558	 1.0981250000e+002	 5.79423e-002
559	 1.0987500000e+002	 7.20193e-002
560	 1.0993750000e+002	 1.32798e-001
561	 1.1000000000e+002	 9.83317e-002
562	 1.1006250000e+002	 7.73383e-002
563	 1.1012500000e+002	 1.19193e-001
564	 1.1018750000e+002	 1.70180e-001
565	 1.1025000000e+002	 6.28625e-002
566	 1.1031250000e+002	 1.22309e-001
567	 1.1037500000e+002	 1.00152e-001
568	 1.1043750000e+002	 7.29355e-002
569	 1.1050000000e+002	 7.53658e-002
570	 1.1056250000e+002	 5.42656e-002
571	 1.1062500000e+002	 8.08515e-002
572	 1.1068750000e+002	 2.49567e-002
573	 1.1075000000e+002	 3.79788e-002
574	 1.1081250000e+002	 7.05119e-002
575	 1.1087500000e+002	 5.04036e-002
576	 1.1093750000e+002	 2.59187e-002
577	 1.1100000000e+002	 2.69800e-002
578	 1.1106250000e+002	 6.98461e-002
579	 1.1112500000e+002	 1.02577e-001
580	 1.1118750000e+002	 5.03812e-002
581	 1.1125000000e+002	 3.15938e-002
582	 1.1131250000e+002	 5.25952e-002
583	 1.1137500000e+002	 4.50740e-002
584	 1.1143750000e+002	 3.78787e-002
585	 1.1150000000e+002	 1.78146e-002
586	 1.1156250000e+002	 3.24811e-002
587	 1.1162500000e+002	 2.89362e-002
588	 1.1168750000e+002	 3.33625e-002
589	 1.1175000000e+002	 3.82465e-002
590	 1.1181250000e+002	 3.81966e-002
591	 1.1187500000e+002	 6.39815e-002
592	 1.1193750000e+002	 5.73780e-002
593	 1.1200000000e+002	 6.61944e-002
594	 1.1206250000e+002	 8.12889e-002
595	 1.1212500000e+002	 2.49690e-002
596	 1.1218750000e+002	 2.71167e-002
597	 1.1225000000e+002	 2.80341e-002
598	 1.1231250000e+002	 1.24696e-002
599	 1.1237500000e+002	 2.00536e-002
600	 1.1243750000e+002	 8.15833e-002
601	 1.1250000000e+002	 5.23196e-002
602	 1.1256250000e+002	 4.60401e-002
603	 1.1262500000e+002	 9.21510e-002
604	 1.1268750000e+002	 5.10648e-002
605	 1.1275000000e+002	 3.85958e-002
606	 1.1281250000e+002	 4.55675e-002
607	 1.1287500000e+002	 4.35243e-002
608	 1.1293750000e+002	 1.83322e-002
609	 1.1300000000e+002	 9.47729e-003
610	 1.1306250000e+002	 2.95355e-002
611	 1.1312500000e+002	 2.94779e-002
612	 1.1318750000e+002	 3.70855e-002
613	 1.1325000000e+002	 8.00036e-002
614	 1.1331250000e+002	 9.23117e-002
615	 1.1337500000e+002	 4.85197e-002
616	 1.1343750000e+002	 3.51403e-002
617	 1.1350000000e+002	 5.06431e-002
618	 1.1356250000e+002	 3.46007e-002
619	 1.1362500000e+002	 2.27042e-002
620	 1.1368750000e+002	 3.60069e-002
621	 1.1375000000e+002	 5.03359e-002
622	 1.1381250000e+002	 2.15618e-002
623	 1.1387500000e+002	 1.12257e-002
624	 1.1393750000e+002	 1.80378e-002
625	 1.1400000000e+002	 4.22845e-002
626	 1.1406250000e+002	 3.77128e-002
627	 1.1412500000e+002	 3.37972e-002
628	 1.1418750000e+002	 3.69090e-002
629	 1.1425000000e+002	 5.28850e-002
630	 1.1431250000e+002	 4.34985e-002
631	 1.1437500000e+002	 5.08849e-002
632	 1.1443750000e+002	 4.88098e-002
633	 1.1450000000e+002	 2.43633e-002
634	 1.1456250000e+002	 2.44213e-002
635	 1.1462500000e+002	 1.34542e-002
636	 1.1468750000e+002	 2.36127e-002
637	 1.1475000000e+002	 2.48789e-002
638	 1.1481250000e+002	 1.02192e-002
639	 1.1487500000e+002	 1.30525e-002
640	 1.1493750000e+002	 1.76623e-002
641	 1.1500000000e+002	 1.19474e-002
642	 1.1506250000e+002	 1.60406e-002
643	 1.1512500000e+002	 1.61725e-002
644	 1.1518750000e+002	 1.22387e-002
645	 1.1525000000e+002	 1.14100e-002
646	 1.1531250000e+002	 8.67477e-003
647	 1.1537500000e+002	 2.42119e-002
648	 1.1543750000e+002	 1.76988e-002
649	 1.1550000000e+002	 1.11526e-002
650	 1.1556250000e+002	 2.78722e-002
651	 1.1562500000e+002	 3.21078e-002
652	 1.1568750000e+002	 2.57827e-002
653	 1.1575000000e+002	 1.58638e-002
654	 1.1581250000e+002	 9.34535e-003
655	 1.1587500000e+002	 1.10825e-002
656	 1.1593750000e+002	 8.69916e-003
657	 1.1600000000e+002	 1.40606e-002
658	 1.1606250000e+002	 1.67779e-002
659	 1.1612500000e+002	 7.24175e-003
660	 1.1618750000e+002	 1.24791e-002
661	 1.1625000000e+002	 2.11432e-002
662	 1.1631250000e+002	 2.10166e-002
663	 1.1637500000e+002	 1.58963e-002
664	 1.1643750000e+002	 1.84121e-002
665	 1.1650000000e+002	 1.45931e-002
666	 1.1656250000e+002	 1.48915e-002
667	 1.1662500000e+002	 1.52046e-002
668	 1.1668750000e+002	 1.23014e-002
669	 1.1675000000e+002	 8.86870e-003
670	 1.1681250000e+002	 1.02784e-002
671	 1.1687500000e+002	 1.00172e-002
672	 1.1693750000e+002	 6.83259e-003
673	 1.1700000000e+002	 8.60505e-003
674	 1.1706250000e+002	 1.90776e-002
675	 1.1712500000e+002	 1.63199e-002
676	 1.1718750000e+002	 4.40120e-003
677	 1.1725000000e+002	 5.08269e-003
678	 1.1731250000e+002	 1.08094e-002
679	 1.1737500000e+002	 1.22357e-002
680	 1.1743750000e+002	 8.98495e-003
681	 1.1750000000e+002	 1.37831e-002
682	 1.1756250000e+002	 1.44480e-002
683	 1.1762500000e+002	 9.71002e-003
684	 1.1768750000e+002	 1.31776e-002
685	 1.1775000000e+002	 8.51020e-003
686	 1.1781250000e+002	 4.86793e-003
687	 1.1787500000e+002	 1.32566e-002
688	 1.1793750000e+002	 1.27050e-002
689	 1.1800000000e+002	 5.61725e-003
690	 1.1806250000e+002	 2.94648e-003
691	 1.1812500000e+002	 6.49282e-003
692	 1.1818750000e+002	 1.66033e-002
693	 1.1825000000e+002	 1.12478e-002
694	 1.1831250000e+002	 1.23312e-002
695	 1.1837500000e+002	 8.85292e-003
696	 1.1843750000e+002	 5.65589e-003
697	 1.1850000000e+002	 1.15733e-002
698	 1.1856250000e+002	 9.78417e-003
699	 1.1862500000e+002	 1.16139e-002
700	 1.1868750000e+002	 2.02146e-002
701	 1.1875000000e+002	 2.65189e-002
702	 1.1881250000e+002	 1.61535e-002
703	 1.1887500000e+002	 8.20803e-003
704	 1.1893750000e+002	 9.05011e-003
705	 1.1900000000e+002	 5.91155e-003
706	 1.1906250000e+002	 4.70024e-003
707	 1.1912500000e+002	 3.70763e-003
708	 1.1918750000e+002	 1.06538e-002
709	 1.1925000000e+002	 1.18995e-002
710	 1.1931250000e+002	 1.19820e-002
711	 1.1937500000e+002	 1.86355e-002
712	 1.1943750000e+002	 1.25167e-002
713	 1.1950000000e+002	 7.92745e-003
714	 1.1956250000e+002	 7.01743e-003
715	 1.1962500000e+002	 5.37718e-003
716	 1.1968750000e+002	 8.32153e-003
717	 1.1975000000e+002	 9.87310e-003
718	 1.1981250000e+002	 7.96624e-003
719	 1.1987500000e+002	 2.12060e-002
720	 1.1993750000e+002	 1.57054e-002
721	 1.2000000000e+002	 8.09643e-003
722	 1.2006250000e+002	 9.89471e-003
723	 1.2012500000e+002	 1.07884e-002
724	 1.2018750000e+002	 3.26762e-003
725	 1.2025000000e+002	 6.57816e-003
726	 1.2031250000e+002	 1.03634e-002
727	 1.2037500000e+002	 5.32069e-003
728	 1.2043750000e+002	 5.79081e-003
729	 1.2050000000e+002	 6.41430e-003
730	 1.2056250000e+002	 8.90136e-003
731	 1.2062500000e+002	 9.39086e-003
732	 1.2068750000e+002	 4.47743e-003
733	 1.2075000000e+002	 6.89784e-003
734	 1.2081250000e+002	 1.48837e-002
735	 1.2087500000e+002	 7.73970e-003
736	 1.2093750000e+002	 1.11489e-002
737	 1.2100000000e+002	 1.18858e-002
738	 1.2106250000e+002	 5.67623e-003
739	 1.2112500000e+002	 5.08055e-003
740	 1.2118750000e+002	 7.13783e-003
741	 1.2125000000e+002	 1.12098e-002
742	 1.2131250000e+002	 1.20766e-002
743	 1.2137500000e+002	 5.23915e-003
744	 1.2143750000e+002	 1.23475e-003
745	 1.2150000000e+002	 1.17405e-003
746	 1.2156250000e+002	 1.01680e-003
747	 1.2162500000e+002	 1.59539e-003
748	 1.2168750000e+002	 3.93990e-003
749	 1.2175000000e+002	 5.38707e-003
750	 1.2181250000e+002	 7.64446e-003
751	 1.2187500000e+002	 8.36221e-003
752	 1.2193750000e+002	 6.06836e-003
753	 1.2200000000e+002	 9.34403e-003
754	 1.2206250000e+002	 7.60207e-003
755	 1.2212500000e+002	 6.17907e-003
756	 1.2218750000e+002	 5.07536e-003
757	 1.2225000000e+002	 7.42864e-003
758	 1.2231250000e+002	 5.45754e-003
759	 1.2237500000e+002	 2.16796e-003
760	 1.2243750000e+002	 3.61683e-003
761	 1.2250000000e+002	 6.26302e-003
762	 1.2256250000e+002	 6.02440e-003
763	 1.2262500000e+002	 6.25925e-003
764	 1.2268750000e+002	 7.28647e-003
765	 1.2275000000e+002	 4.88255e-003
766	 1.2281250000e+002	 2.98149e-003
767	 1.2287500000e+002	 3.18288e-003
768	 1.2293750000e+002	 5.05833e-003
769	 1.2300000000e+002	 4.09816e-003
770	 1.2306250000e+002	 5.54964e-003
771	 1.2312500000e+002	 1.02726e-002
772	 1.2318750000e+002	 7.87156e-003
773	 1.2325000000e+002	 5.49278e-003
774	 1.2331250000e+002	 3.95998e-003
775	 1.2337500000e+002	 6.20616e-003
776	 1.2343750000e+002	 2.52648e-003
777	 1.2350000000e+002	 1.70946e-003
778	 1.2356250000e+002	 4.86756e-003
779	 1.2362500000e+002	 6.33135e-003
780	 1.2368750000e+002	 1.04634e-002
781	 1.2375000000e+002	 4.77972e-003
782	 1.2381250000e+002	 7.41794e-003
783	 1.2387500000e+002	 9.00142e-003
784	 1.2393750000e+002	 6.58685e-003
785	 1.2400000000e+002	 1.65718e-003
786	 1.2406250000e+002	 1.59393e-003
787	 1.2412500000e+002	 2.47089e-003
788	 1.2418750000e+002	 5.19243e-003
789	 1.2425000000e+002	 4.13730e-003
790	 1.2431250000e+002	 6.89067e-003
791	 1.2437500000e+002	 7.09167e-003
792	 1.2443750000e+002	 3.45377e-003
793	 1.2450000000e+002	 5.34864e-003
794	 1.2456250000e+002	 1.09840e-002
795	 1.2462500000e+002	 1.29698e-002
796	 1.2468750000e+002	 6.71898e-003
797	 1.2475000000e+002	 6.15859e-003
798	 1.2481250000e+002	 5.40199e-003
799	 1.2487500000e+002	 3.00663e-003
800	 1.2493750000e+002	 3.38491e-003
801	 1.2500000000e+002	 2.41436e-003
802	 1.2506250000e+002	 2.33609e-003
803	 1.2512500000e+002	 3.90416e-003
804	 1.2518750000e+002	 8.42708e-003
805	 1.2525000000e+002	 8.92524e-003
806	 1.2531250000e+002	 9.24887e-003
807	 1.2537500000e+002	 7.80203e-003
808	 1.2543750000e+002	 4.77525e-003
809	 1.2550000000e+002	 7.32572e-003
810	 1.2556250000e+002	 1.35069e-002
811	 1.2562500000e+002	 1.23972e-002
812	 1.2568750000e+002	 4.91001e-003
813	 1.2575000000e+002	 2.93993e-003
814	 1.2581250000e+002	 2.55013e-003
815	 1.2587500000e+002	 2.90046e-003
816	 1.2593750000e+002	 5.64359e-003
817	 1.2600000000e+002	 8.07791e-003
818	 1.2606250000e+002	 5.16011e-003
819	 1.2612500000e+002	 3.48559e-003
820	 1.2618750000e+002	 4.13347e-003
821	 1.2625000000e+002	 7.29198e-003
822	 1.2631250000e+002	 4.38206e-003
823	 1.2637500000e+002	 1.39187e-003
824	 1.2643750000e+002	 2.48961e-003
825	 1.2650000000e+002	 4.32436e-003
826	 1.2656250000e+002	 6.53300e-003
827	 1.2662500000e+002	 2.75768e-003
828	 1.2668750000e+002	 1.72917e-003
829	 1.2675000000e+002	 1.93328e-003
830	 1.2681250000e+002	 3.79410e-003
831	 1.2687500000e+002	 3.10949e-003
832	 1.2693750000e+002	 4.14773e-003
833	 1.2700000000e+002	 4.66516e-003
834	 1.2706250000e+002	 3.63187e-003
835	 1.2712500000e+002	 3.77002e-003
836	 1.2718750000e+002	 4.90777e-003
837	 1.2725000000e+002	 9.76712e-003
838	 1.2731250000e+002	 5.34566e-003
839	 1.2737500000e+002	 4.29210e-003
840	 1.2743750000e+002	 6.55308e-003
841	 1.2750000000e+002	 5.93116e-003
842	 1.2756250000e+002	 2.79833e-003
843	 1.2762500000e+002	 3.20801e-003
844	 1.2768750000e+002	 5.30870e-003
845	 1.2775000000e+002	 6.01868e-003
846	 1.2781250000e+002	 4.34902e-003
847	 1.2787500000e+002	 2.39005e-003
848	 1.2793750000e+002	 3.25270e-003
849	 1.2800000000e+002	 5.30373e-003
850	 1.2806250000e+002	 3.79302e-003
851	 1.2812500000e+002	 5.78501e-003
852	 1.2818750000e+002	 5.85790e-003
853	 1.2825000000e+002	 8.77133e-003
854	 1.2831250000e+002	 8.30517e-003
855	 1.2837500000e+002	 4.87757e-003
856	 1.2843750000e+002	 6.68540e-003
857	 1.2850000000e+002	 8.27679e-003
858	 1.2856250000e+002	 9.34889e-003
859	 1.2862500000e+002	 5.07570e-003
860	 1.2868750000e+002	 2.05308e-003
861	 1.2875000000e+002	 2.77829e-003
862	 1.2881250000e+002	 7.06751e-003
863	 1.2887500000e+002	 1.44920e-002
864	 1.2893750000e+002	 1.15325e-002
865	 1.2900000000e+002	 4.38750e-003
866	 1.2906250000e+002	 1.75512e-003
867	 1.2912500000e+002	 3.95741e-003
868	 1.2918750000e+002	 1.25311e-002
869	 1.2925000000e+002	 1.34064e-002
870	 1.2931250000e+002	 6.37974e-003
871	 1.2937500000e+002	 2.90580e-003
872	 1.2943750000e+002	 3.73149e-003
873	 1.2950000000e+002	 4.82032e-003
874	 1.2956250000e+002	 6.82854e-003
875	 1.2962500000e+002	 8.07361e-003
876	 1.2968750000e+002	 3.77094e-003
877	 1.2975000000e+002	 4.38756e-003
878	 1.2981250000e+002	 5.62548e-003
879	 1.2987500000e+002	 2.56468e-003
880	 1.2993750000e+002	 2.74428e-003
881	 1.3000000000e+002	 3.55343e-003
882	 1.3006250000e+002	 2.66804e-003
883	 1.3012500000e+002	 3.58961e-003
884	 1.3018750000e+002	 6.35687e-003
885	 1.3025000000e+002	 3.50921e-003
886	 1.3031250000e+002	 2.40644e-003
887	 1.3037500000e+002	 5.87900e-003
888	 1.3043750000e+002	 5.90488e-003
889	 1.3050000000e+002	 3.82072e-003
890	 1.3056250000e+002	 2.11659e-003
891	 1.3062500000e+002	 1.72650e-003
892	 1.3068750000e+002	 1.25598e-003
893	 1.3075000000e+002	 7.08255e-004
894	 1.3081250000e+002	 1.74024e-003
895	 1.3087500000e+002	 4.05126e-003
896	 1.3093750000e+002	 3.79312e-003
897	 1.3100000000e+002	 4.99455e-003
898	 1.3106250000e+002	 3.34383e-003
899	 1.3112500000e+002	 4.13498e-003
900	 1.3118750000e+002	 2.83171e-003
901	 1.3125000000e+002	 3.37162e-003
902	 1.3131250000e+002	 4.52774e-003
903	 1.3137500000e+002	 4.00952e-003
904	 1.3143750000e+002	 2.90359e-003
905	 1.3150000000e+002	 5.96474e-003
906	 1.3156250000e+002	 5.84941e-003
907	 1.3162500000e+002	 4.27678e-003
908	 1.3168750000e+002	 5.97420e-003
909	 1.3175000000e+002	 3.42934e-003
910	 1.3181250000e+002	 4.43935e-003
911	 1.3187500000e+002	 3.08228e-003
912	 1.3193750000e+002	 3.20965e-003
913	 1.3200000000e+002	 3.85755e-003
914	 1.3206250000e+002	 2.87181e-003
915	 1.3212500000e+002	 6.29485e-003
916	 1.3218750000e+002	 8.69735e-003
917	 1.3225000000e+002	 6.99155e-003
918	 1.3231250000e+002	 4.73417e-003
919	 1.3237500000e+002	 3.61531e-003
920	 1.3243750000e+002	 5.80930e-003
921	 1.3250000000e+002	 5.03404e-003
922	 1.3256250000e+002	 2.56027e-003
923	 1.3262500000e+002	 6.91311e-004
924	 1.3268750000e+002	 6.99963e-004
925	 1.3275000000e+002	 3.38904e-003
926	 1.3281250000e+002	 3.17550e-003
927	 1.3287500000e+002	 3.92873e-003
928	 1.3293750000e+002	 5.33885e-003
929	 1.3300000000e+002	 3.25533e-003
930	 1.3306250000e+002	 3.07276e-003
931	 1.3312500000e+002	 6.03741e-003
932	 1.3318750000e+002	 7.30732e-003
933	 1.3325000000e+002	 6.35082e-003
934	 1.3331250000e+002	 3.64651e-003
935	 1.3337500000e+002	 3.65928e-003
936	 1.3343750000e+002	 2.66359e-003
937	 1.3350000000e+002	 2.98045e-003
938	 1.3356250000e+002	 5.50561e-003
939	 1.3362500000e+002	 5.03123e-003
940	 1.3368750000e+002	 4.92404e-003
941	 1.3375000000e+002	 8.54473e-003
942	 1.3381250000e+002	 7.87000e-003
943	 1.3387500000e+002	 4.17069e-003
944	 1.3393750000e+002	 3.67143e-003
945	 1.3400000000e+002	 2.95268e-003
946	 1.3406250000e+002	 8.51131e-004
947	 1.3412500000e+002	 1.34893e-003
948	 1.3418750000e+002	 2.82546e-003
949	 1.3425000000e+002	 9.23844e-003
950	 1.3431250000e+002	 7.28478e-003
951	 1.3437500000e+002	 1.06662e-002
952	 1.3443750000e+002	 1.37897e-002
953	 1.3450000000e+002	 4.59330e-003
954	 1.3456250000e+002	 1.90602e-003
955	 1.3462500000e+002	 4.73645e-003
956	 1.3468750000e+002	 1.14249e-002
957	 1.3475000000e+002	 8.75201e-003
958	 1.3481250000e+002	 3.36645e-003
959	 1.3487500000e+002	 5.25124e-003
960	 1.3493750000e+002	 5.77517e-003
961	 1.3500000000e+002	 6.10560e-003
962	 1.3506250000e+002	 3.77054e-003
963	 1.3512500000e+002	 5.85037e-003
964	 1.3518750000e+002	 3.58566e-003
965	 1.3525000000e+002	 3.57750e-003
966	 1.3531250000e+002	 4.51532e-003
967	 1.3537500000e+002	 8.82786e-003
968	 1.3543750000e+002	 1.94780e-002
969	 1.3550000000e+002	 9.08978e-003
970	 1.3556250000e+002	 2.89080e-003
971	 1.3562500000e+002	 3.33668e-003
972	 1.3568750000e+002	 7.35101e-003
973	 1.3575000000e+002	 5.22396e-003
974	 1.3581250000e+002	 5.17977e-003
975	 1.3587500000e+002	 2.98461e-003
976	 1.3593750000e+002	 2.19488e-003
977	 1.3600000000e+002	 8.67947e-004
978	 1.3606250000e+002	 2.78983e-003
979	 1.3612500000e+002	 5.14951e-003
980	 1.3618750000e+002	 6.76467e-003
981	 1.3625000000e+002	 6.56786e-003
982	 1.3631250000e+002	 2.89627e-003
983	 1.3637500000e+002	 2.24479e-003
984	 1.3643750000e+002	 5.64715e-003
985	 1.3650000000e+002	 4.81769e-003
986	 1.3656250000e+002	 3.21890e-003
987	 1.3662500000e+002	 2.60228e-003
988	 1.3668750000e+002	 4.74942e-003
989	 1.3675000000e+002	 4.60301e-003
990	 1.3681250000e+002	 3.60294e-003
991	 1.3687500000e+002	 7.50176e-003
992	 1.3693750000e+002	 5.50577e-003
993	 1.3700000000e+002	 7.35336e-003
994	 1.3706250000e+002	 6.34981e-003
995	 1.3712500000e+002	 1.09845e-002
996	 1.3718750000e+002	 7.53810e-003
997	 1.3725000000e+002	 5.59667e-003
998	 1.3731250000e+002	 9.05458e-003
999	 1.3737500000e+002	 1.14572e-002
1000	 1.3743750000e+002	 4.58371e-003
1001	 1.3750000000e+002	 4.46240e-003
1002	 1.3756250000e+002	 4.72984e-003
1003	 1.3762500000e+002	 8.09909e-003
1004	 1.3768750000e+002	 1.25850e-002
1005	 1.3775000000e+002	 8.43007e-003
1006	 1.3781250000e+002	 4.27761e-003
1007	 1.3787500000e+002	 5.49304e-003
1008	 1.3793750000e+002	 4.00168e-003
1009	 1.3800000000e+002	 5.84043e-003
1010	 1.3806250000e+002	 4.55221e-003
1011	 1.3812500000e+002	 8.74269e-003
1012	 1.3818750000e+002	 1.26787e-002
1013	 1.3825000000e+002	 4.69534e-003
1014	 1.3831250000e+002	 2.86134e-003
1015	 1.3837500000e+002	 2.96620e-003
1016	 1.3843750000e+002	 4.23301e-003
1017	 1.3850000000e+002	 9.07637e-003
1018	 1.3856250000e+002	 7.42850e-003
1019	 1.3862500000e+002	 7.49620e-003
1020	 1.3868750000e+002	 6.94989e-003
1021	 1.3875000000e+002	 9.46348e-003
1022	 1.3881250000e+002	 9.11804e-003
1023	 1.3887500000e+002	 6.93563e-003
1024	 1.3893750000e+002	 5.04828e-003
1025	 1.3900000000e+002	 8.71044e-003
1026	 1.3906250000e+002	 1.25929e-002
1027	 1.3912500000e+002	 3.54609e-003
1028	 1.3918750000e+002	 3.34384e-003
1029	 1.3925000000e+002	 7.92602e-003
1030	 1.3931250000e+002	 1.29152e-002
1031	 1.3937500000e+002	 5.69879e-003
1032	 1.3943750000e+002	 5.13544e-003
1033	 1.3950000000e+002	 8.92715e-003
1034	 1.3956250000e+002	 5.07360e-003
1035	 1.3962500000e+002	 3.24201e-003
1036	 1.3968750000e+002	 5.24871e-003
1037	 1.3975000000e+002	 8.66789e-003
1038	 1.3981250000e+002	 4.97311e-003
1039	 1.3987500000e+002	 4.36085e-003
1040	 1.3993750000e+002	 5.39282e-003
1041	 1.4000000000e+002	 1.07495e-002
1042	 1.4006250000e+002	 1.27940e-002
1043	 1.4012500000e+002	 1.12008e-002
1044	 1.4018750000e+002	 8.24799e-003
1045	 1.4025000000e+002	 8.01198e-003
1046	 1.4031250000e+002	 1.21691e-002
1047	 1.4037500000e+002	 1.12199e-002
1048	 1.4043750000e+002	 5.61435e-003
1049	 1.4050000000e+002	 6.34511e-003
1050	 1.4056250000e+002	 6.74468e-003
1051	 1.4062500000e+002	 1.77566e-002
1052	 1.4068750000e+002	 1.67112e-002
1053	 1.4075000000e+002	 1.28269e-002
1054	 1.4081250000e+002	 1.00358e-002
1055	 1.4087500000e+002	 1.37929e-002
1056	 1.4093750000e+002	 1.17941e-002
1057	 1.4100000000e+002	 8.56551e-003
1058	 1.4106250000e+002	 8.15825e-003
1059	 1.4112500000e+002	 4.16064e-003
1060	 1.4118750000e+002	 5.14597e-003
1061	 1.4125000000e+002	 5.67687e-003
1062	 1.4131250000e+002	 5.99179e-003
1063	 1.4137500000e+002	 7.30715e-003
1064	 1.4143750000e+002	 8.15313e-003
1065	 1.4150000000e+002	 6.43525e-003
1066	 1.4156250000e+002	 8.15892e-003
1067	 1.4162500000e+002	 6.70276e-003
1068	 1.4168750000e+002	 7.10774e-003
1069	 1.4175000000e+002	 7.36730e-003
1070	 1.4181250000e+002	 4.84888e-003
1071	 1.4187500000e+002	 5.89520e-003
1072	 1.4193750000e+002	 6.19397e-003
1073	 1.4200000000e+002	 4.64649e-003
1074	 1.4206250000e+002	 9.76606e-003
1075	 1.4212500000e+002	 1.73189e-002
1076	 1.4218750000e+002	 9.83990e-003
1077	 1.4225000000e+002	 5.51558e-003
1078	 1.4231250000e+002	 6.26229e-003
1079	 1.4237500000e+002	 9.27722e-003
1080	 1.4243750000e+002	 3.26235e-003
1081	 1.4250000000e+002	 1.16814e-002
1082	 1.4256250000e+002	 1.80424e-002
1083	 1.4262500000e+002	 5.55466e-003
1084	 1.4268750000e+002	 3.70140e-003
1085	 1.4275000000e+002	 1.47489e-003
1086	 1.4281250000e+002	 1.01769e-003
1087	 1.4287500000e+002	 3.17817e-003
1088	 1.4293750000e+002	 6.70401e-003
1089	 1.4300000000e+002	 1.16158e-002
1090	 1.4306250000e+002	 1.26024e-002
1091	 1.4312500000e+002	 1.04242e-002
1092	 1.4318750000e+002	 7.09755e-003
1093	 1.4325000000e+002	 9.71020e-003
1094	 1.4331250000e+002	 1.03354e-002
1095	 1.4337500000e+002	 5.50876e-003
1096	 1.4343750000e+002	 6.89400e-003
1097	 1.4350000000e+002	 1.14885e-002
1098	 1.4356250000e+002	 8.84579e-003
1099	 1.4362500000e+002	 1.33621e-002
1100	 1.4368750000e+002	 9.95403e-003
1101	 1.4375000000e+002	 1.09502e-002
1102	 1.4381250000e+002	 8.39221e-003
1103	 1.4387500000e+002	 1.78313e-002
1104	 1.4393750000e+002	 1.78111e-002
1105	 1.4400000000e+002	 9.54239e-003
1106	 1.4406250000e+002	 7.34537e-003
1107	 1.4412500000e+002	 9.45493e-003
1108	 1.4418750000e+002	 1.04321e-002
1109	 1.4425000000e+002	 5.00070e-003
1110	 1.4431250000e+002	 5.05254e-003
1111	 1.4437500000e+002	 5.81073e-003
1112	 1.4443750000e+002	 8.12744e-003
1113	 1.4450000000e+002	 4.94615e-003
1114	 1.4456250000e+002	 3.59772e-003
1115	 1.4462500000e+002	 1.46962e-002
1116	 1.4468750000e+002	 6.76860e-003
1117	 1.4475000000e+002	 8.14880e-003
1118	 1.4481250000e+002	 1.60358e-002
1119	 1.4487500000e+002	 9.03279e-003
1120	 1.4493750000e+002	 7.85047e-003
1121	 1.4500000000e+002	 4.15165e-003
1122	 1.4506250000e+002	 3.13688e-003
1123	 1.4512500000e+002	 1.08442e-002
1124	 1.4518750000e+002	 1.46704e-002
1125	 1.4525000000e+002	 6.79000e-003
1126	 1.4531250000e+002	 3.23732e-003
1127	 1.4537500000e+002	 1.47701e-003
1128	 1.4543750000e+002	 4.09979e-003
1129	 1.4550000000e+002	 1.74778e-002
1130	 1.4556250000e+002	 3.01123e-002
1131	 1.4562500000e+002	 1.64202e-002
1132	 1.4568750000e+002	 1.44541e-002
1133	 1.4575000000e+002	 1.65861e-002
1134	 1.4581250000e+002	 3.26251e-002
1135	 1.4587500000e+002	 2.41178e-002
1136	 1.4593750000e+002	 1.56072e-002
1137	 1.4600000000e+002	 1.99438e-002
1138	 1.4606250000e+002	 1.13263e-002
1139	 1.4612500000e+002	 1.02571e-002
1140	 1.4618750000e+002	 6.31670e-003
1141	 1.4625000000e+002	 6.45311e-003
1142	 1.4631250000e+002	 1.15335e-002
1143	 1.4637500000e+002	 1.56937e-002
1144	 1.4643750000e+002	 1.15636e-002
1145	 1.4650000000e+002	 2.94907e-002
1146	 1.4656250000e+002	 4.16944e-002
1147	 1.4662500000e+002	 1.73361e-002
1148	 1.4668750000e+002	 1.15927e-002
1149	 1.4675000000e+002	 1.39460e-002
1150	 1.4681250000e+002	 7.74008e-003
1151	 1.4687500000e+002	 1.99377e-002
1152	 1.4693750000e+002	 1.81628e-002
1153	 1.4700000000e+002	 9.55720e-003
1154	 1.4706250000e+002	 1.60750e-002
1155	 1.4712500000e+002	 1.35993e-002
1156	 1.4718750000e+002	 9.78343e-003
1157	 1.4725000000e+002	 2.00891e-002
1158	 1.4731250000e+002	 2.53889e-002
1159	 1.4737500000e+002	 2.25318e-002
1160	 1.4743750000e+002	 2.06548e-002
1161	 1.4750000000e+002	 3.11465e-002
1162	 1.4756250000e+002	 1.92736e-002
1163	 1.4762500000e+002	 4.62244e-002
1164	 1.4768750000e+002	 3.83096e-002
1165	 1.4775000000e+002	 1.12578e-002
1166	 1.4781250000e+002	 1.23487e-002
1167	 1.4787500000e+002	 1.49593e-002
1168	 1.4793750000e+002	 8.54769e-003
1169	 1.4800000000e+002	 5.76599e-003
1170	 1.4806250000e+002	 2.23516e-002
1171	 1.4812500000e+002	 1.55479e-002
1172	 1.4818750000e+002	 1.00658e-002
1173	 1.4825000000e+002	 1.03460e-002
1174	 1.4831250000e+002	 1.09965e-002
1175	 1.4837500000e+002	 1.02619e-002
1176	 1.4843750000e+002	 7.28760e-003
1177	 1.4850000000e+002	 7.10109e-003
1178	 1.4856250000e+002	 9.33497e-003
1179	 1.4862500000e+002	 1.62611e-002
1180	 1.4868750000e+002	 6.91555e-003
1181	 1.4875000000e+002	 9.52971e-003
1182	 1.4881250000e+002	 7.33115e-003
1183	 1.4887500000e+002	 2.06769e-002
1184	 1.4893750000e+002	 3.34025e-002
1185	 1.4900000000e+002	 2.49834e-002
1186	 1.4906250000e+002	 2.34445e-002
1187	 1.4912500000e+002	 2.50671e-002
1188	 1.4918750000e+002	 1.54030e-002
1189	 1.4925000000e+002	 1.57189e-002
1190	 1.4931250000e+002	 2.72796e-002
1191	 1.4937500000e+002	 2.38149e-002
1192	 1.4943750000e+002	 2.43668e-002
1193	 1.4950000000e+002	 2.28800e-002
1194	 1.4956250000e+002	 2.63777e-002
1195	 1.4962500000e+002	 1.96491e-002
1196	 1.4968750000e+002	 6.46250e-003
1197	 1.4975000000e+002	 1.16903e-002
1198	 1.4981250000e+002	 1.71351e-002
1199	 1.4987500000e+002	 8.41118e-003
1200	 1.4993750000e+002	 9.54925e-003
1201	 1.5000000000e+002	 1.35145e-002
1202	 1.5006250000e+002	 1.87618e-002
1203	 1.5012500000e+002	 1.79758e-002
1204	 1.5018750000e+002	 5.46746e-003
1205	 1.5025000000e+002	 7.37891e-003
1206	 1.5031250000e+002	 1.03203e-002
1207	 1.5037500000e+002	 1.24686e-002
1208	 1.5043750000e+002	 1.92619e-002
1209	 1.5050000000e+002	 3.55096e-002
1210	 1.5056250000e+002	 3.66340e-002
1211	 1.5062500000e+002	 2.50558e-002
1212	 1.5068750000e+002	 1.97192e-002
1213	 1.5075000000e+002	 1.79820e-002
1214	 1.5081250000e+002	 2.38899e-002
1215	 1.5087500000e+002	 3.73328e-002
1216	 1.5093750000e+002	 2.82148e-002
1217	 1.5100000000e+002	 3.14437e-002
1218	 1.5106250000e+002	 3.79047e-002
1219	 1.5112500000e+002	 3.21770e-002
1220	 1.5118750000e+002	 2.22847e-002
1221	 1.5125000000e+002	 1.49989e-002
1222	 1.5131250000e+002	 1.64378e-002
1223	 1.5137500000e+002	 1.97996e-002
1224	 1.5143750000e+002	 2.68985e-002
1225	 1.5150000000e+002	 1.94512e-002
1226	 1.5156250000e+002	 2.40653e-002
1227	 1.5162500000e+002	 2.82955e-002
1228	 1.5168750000e+002	 5.16012e-002
1229	 1.5175000000e+002	 4.03616e-002
1230	 1.5181250000e+002	 5.13662e-002
1231	 1.5187500000e+002	 2.96982e-002
1232	 1.5193750000e+002	 1.88334e-002
1233	 1.5200000000e+002	 2.26162e-002
1234	 1.5206250000e+002	 2.46974e-002
1235	 1.5212500000e+002	 3.30676e-002
1236	 1.5218750000e+002	 2.26255e-002
1237	 1.5225000000e+002	 2.08217e-002
1238	 1.5231250000e+002	 4.84341e-003
1239	 1.5237500000e+002	 4.64491e-003
1240	 1.5243750000e+002	 1.55574e-002
1241	 1.5250000000e+002	 2.57366e-002
1242	 1.5256250000e+002	 1.25962e-002
1243	 1.5262500000e+002	 2.41386e-002
1244	 1.5268750000e+002	 1.19821e-002
1245	 1.5275000000e+002	 1.52188e-002
1246	 1.5281250000e+002	 3.42411e-002
1247	 1.5287500000e+002	 4.87365e-002
1248	 1.5293750000e+002	 6.84973e-002
1249	 1.5300000000e+002	 9.62806e-002
1250	 1.5306250000e+002	 6.06848e-002
1251	 1.5312500000e+002	 3.65899e-002
1252	 1.5318750000e+002	 2.78343e-002
1253	 1.5325000000e+002	 3.20676e-002
1254	 1.5331250000e+002	 5.72234e-002
1255	 1.5337500000e+002	 3.24855e-002
1256	 1.5343750000e+002	 2.01239e-002
1257	 1.5350000000e+002	 1.52103e-002
1258	 1.5356250000e+002	 1.99304e-002
1259	 1.5362500000e+002	 2.10378e-002
1260	 1.5368750000e+002	 1.00581e-002
1261	 1.5375000000e+002	 3.81075e-002
1262	 1.5381250000e+002	 7.14073e-002
1263	 1.5387500000e+002	 7.55459e-002
1264	 1.5393750000e+002	 6.01183e-002
1265	 1.5400000000e+002	 4.79247e-002
1266	 1.5406250000e+002	 3.92959e-002
1267	 1.5412500000e+002	 2.80026e-002
1268	 1.5418750000e+002	 2.11974e-002
1269	 1.5425000000e+002	 3.77356e-002
1270	 1.5431250000e+002	 4.16772e-002
1271	 1.5437500000e+002	 4.85234e-002
1272	 1.5443750000e+002	 8.54071e-002
1273	 1.5450000000e+002	 5.93892e-002
1274	 1.5456250000e+002	 6.26772e-002
1275	 1.5462500000e+002	 7.80055e-002
1276	 1.5468750000e+002	 3.31907e-002
1277	 1.5475000000e+002	 1.30000e-002
1278	 1.5481250000e+002	 1.98702e-002
1279	 1.5487500000e+002	 3.92912e-002
1280	 1.5493750000e+002	 4.57980e-002
1281	 1.5500000000e+002	 4.43058e-002
1282	 1.5506250000e+002	 3.88029e-002
1283	 1.5512500000e+002	 5.40745e-002
1284	 1.5518750000e+002	 9.18676e-002
1285	 1.5525000000e+002	 6.68877e-002
1286	 1.5531250000e+002	 8.91051e-002
1287	 1.5537500000e+002	 1.68594e-001
1288	 1.5543750000e+002	 8.66082e-002
1289	 1.5550000000e+002	 4.38563e-002
1290	 1.5556250000e+002	 1.19809e-001
1291	 1.5562500000e+002	 8.76241e-002
1292	 1.5568750000e+002	 8.09039e-002
1293	 1.5575000000e+002	 9.76630e-002
1294	 1.5581250000e+002	 1.52675e-001
1295	 1.5587500000e+002	 1.23778e-001
1296	 1.5593750000e+002	 4.38451e-002
1297	 1.5600000000e+002	 4.05938e-002
1298	 1.5606250000e+002	 8.72862e-002
1299	 1.5612500000e+002	 1.21249e-001
1300	 1.5618750000e+002	 6.38329e-002
1301	 1.5625000000e+002	 2.62151e-002
1302	 1.5631250000e+002	 7.15180e-002
1303	 1.5637500000e+002	 1.47845e-001
1304	 1.5643750000e+002	 1.27192e-001
1305	 1.5650000000e+002	 4.45189e-002
1306	 1.5656250000e+002	 3.85734e-002
1307	 1.5662500000e+002	 8.12056e-002
1308	 1.5668750000e+002	 8.87296e-002
1309	 1.5675000000e+002	 6.10961e-002
1310	 1.5681250000e+002	 7.74246e-002
1311	 1.5687500000e+002	 1.19451e-001
1312	 1.5693750000e+002	 1.85948e-001
1313	 1.5700000000e+002	 2.47188e-001
1314	 1.5706250000e+002	 1.12893e-001
1315	 1.5712500000e+002	 7.57731e-002
1316	 1.5718750000e+002	 4.93605e-002
1317	 1.5725000000e+002	 4.57552e-002
1318	 1.5731250000e+002	 5.66422e-002
1319	 1.5737500000e+002	 5.56499e-002
1320	 1.5743750000e+002	 5.77222e-002
1321	 1.5750000000e+002	 7.54718e-002
1322	 1.5756250000e+002	 1.22124e-001
1323	 1.5762500000e+002	 1.60782e-001
1324	 1.5768750000e+002	 1.20452e-001
1325	 1.5775000000e+002	 1.28460e-001
1326	 1.5781250000e+002	 1.61768e-001
1327	 1.5787500000e+002	 1.12648e-001
1328	 1.5793750000e+002	 1.27023e-001
1329	 1.5800000000e+002	 1.14644e-001
1330	 1.5806250000e+002	 5.27219e-002
1331	 1.5812500000e+002	 6.63705e-002
1332	 1.5818750000e+002	 1.66530e-001
1333	 1.5825000000e+002	 1.44050e-001
1334	 1.5831250000e+002	 1.35004e-001
1335	 1.5837500000e+002	 7.03780e-002
1336	 1.5843750000e+002	 5.35374e-002
1337	 1.5850000000e+002	 5.58994e-002
1338	 1.5856250000e+002	 7.71707e-002
1339	 1.5862500000e+002	 6.50040e-002
1340	 1.5868750000e+002	 1.31313e-001
1341	 1.5875000000e+002	 1.74795e-001
1342	 1.5881250000e+002	 1.65043e-001
1343	 1.5887500000e+002	 2.24576e-001
1344	 1.5893750000e+002	 1.95671e-001
1345	 1.5900000000e+002	 3.18748e-001
1346	 1.5906250000e+002	 3.99476e-001
1347	 1.5912500000e+002	 2.54945e-001
1348	 1.5918750000e+002	 1.95882e-001
1349	 1.5925000000e+002	 2.09331e-001
1350	 1.5931250000e+002	 2.62411e-001
1351	 1.5937500000e+002	 1.61294e-001
1352	 1.5943750000e+002	 1.85522e-001
1353	 1.5950000000e+002	 2.01658e-001
1354	 1.5956250000e+002	 6.79951e-002
1355	 1.5962500000e+002	 1.05183e-001
1356	 1.5968750000e+002	 3.91908e-001
1357	 1.5975000000e+002	 2.40112e-001
1358	 1.5981250000e+002	 6.38656e-002
1359	 1.5987500000e+002	 6.39200e-002
1360	 1.5993750000e+002	 9.81207e-002
1361	 1.6000000000e+002	 1.71697e-001
1362	 1.6006250000e+002	 3.17593e-001
1363	 1.6012500000e+002	 6.50866e-001
1364	 1.6018750000e+002	 6.45377e-001
1365	 1.6025000000e+002	 3.73759e-001
1366	 1.6031250000e+002	 4.91471e-001
1367	 1.6037500000e+002	 7.12599e-001
1368	 1.6043750000e+002	 3.75047e-001
1369	 1.6050000000e+002	 1.66559e-001
1370	 1.6056250000e+002	 1.77568e-001
1371	 1.6062500000e+002	 2.81019e-001
1372	 1.6068750000e+002	 2.43958e-001
1373	 1.6075000000e+002	 3.14820e-001
1374	 1.6081250000e+002	 5.10773e-001
1375	 1.6087500000e+002	 4.70419e-001
1376	 1.6093750000e+002	 4.22835e-001
1377	 1.6100000000e+002	 4.37570e-001
1378	 1.6106250000e+002	 1.99622e-001
1379	 1.6112500000e+002	 3.53455e-001
1380	 1.6118750000e+002	 4.34001e-001
1381	 1.6125000000e+002	 1.60526e-001
1382	 1.6131250000e+002	 1.63956e-001
1383	 1.6137500000e+002	 4.32215e-001
1384	 1.6143750000e+002	 5.89985e-001
1385	 1.6150000000e+002	 4.95702e-001
1386	 1.6156250000e+002	 2.30259e-001
1387	 1.6162500000e+002	 3.36835e-001
1388	 1.6168750000e+002	 4.22058e-001
1389	 1.6175000000e+002	 2.55065e-001
1390	 1.6181250000e+002	 1.64017e-001
1391	 1.6187500000e+002	 3.24707e-001
1392	 1.6193750000e+002	 5.26235e-001
1393	 1.6200000000e+002	 3.59322e-001
1394	 1.6206250000e+002	 1.26349e-001
1395	 1.6212500000e+002	 2.25770e-001
1396	 1.6218750000e+002	 3.37789e-001
1397	 1.6225000000e+002	 7.38720e-001
1398	 1.6231250000e+002	 7.79468e-001
1399	 1.6237500000e+002	 4.59890e-001
1400	 1.6243750000e+002	 2.92561e-001
1401	 1.6250000000e+002	 2.51848e-001
1402	 1.6256250000e+002	 4.55676e-001
1403	 1.6262500000e+002	 5.32609e-001
1404	 1.6268750000e+002	 2.03941e-001
1405	 1.6275000000e+002	 1.61077e-001
1406	 1.6281250000e+002	 1.53011e-001
1407	 1.6287500000e+002	 7.68399e-002
1408	 1.6293750000e+002	 2.93302e-001
1409	 1.6300000000e+002	 4.36723e-001
1410	 1.6306250000e+002	 2.73289e-001
1411	 1.6312500000e+002	 1.21505e-001
1412	 1.6318750000e+002	 2.29204e-001
1413	 1.6325000000e+002	 1.90794e-001
1414	 1.6331250000e+002	 2.36814e-001
1415	 1.6337500000e+002	 2.06344e-001
1416	 1.6343750000e+002	 2.42053e-001
1417	 1.6350000000e+002	 2.40574e-001
1418	 1.6356250000e+002	 1.02524e-001
1419	 1.6362500000e+002	 1.02138e-001
1420	 1.6368750000e+002	 2.33582e-001
1421	 1.6375000000e+002	 3.55083e-001
1422	 1.6381250000e+002	 2.96504e-001
1423	 1.6387500000e+002	 1.57824e-001
1424	 1.6393750000e+002	 9.70088e-002
1425	 1.6400000000e+002	 2.33533e-001
1426	 1.6406250000e+002	 2.86353e-001
1427	 1.6412500000e+002	 1.87946e-001
1428	 1.6418750000e+002	 1.77695e-001
1429	 1.6425000000e+002	 2.32408e-001
1430	 1.6431250000e+002	 3.13209e-001
1431	 1.6437500000e+002	 2.06071e-001
1432	 1.6443750000e+002	 1.23730e-001
1433	 1.6450000000e+002	 8.78886e-002
1434	 1.6456250000e+002	 1.49542e-001
1435	 1.6462500000e+002	 3.26933e-001
1436	 1.6468750000e+002	 3.00523e-001
1437	 1.6475000000e+002	 1.78709e-001
1438	 1.6481250000e+002	 1.46115e-001
1439	 1.6487500000e+002	 1.39425e-001
1440	 1.6493750000e+002	 1.62978e-001
1441	 1.6500000000e+002	 1.11698e-001
1442	 1.6506250000e+002	 1.07253e-001
1443	 1.6512500000e+002	 1.02805e-001
1444	 1.6518750000e+002	 1.25886e-001
1445	 1.6525000000e+002	 1.37893e-001
1446	 1.6531250000e+002	 2.06581e-001
1447	 1.6537500000e+002	 2.59477e-001
1448	 1.6543750000e+002	 1.49909e-001
1449	 1.6550000000e+002	 1.73396e-001
1450	 1.6556250000e+002	 9.91266e-002
1451	 1.6562500000e+002	 9.40757e-002
1452	 1.6568750000e+002	 4.77865e-002
1453	 1.6575000000e+002	 6.54039e-002
1454	 1.6581250000e+002	 9.23751e-002
1455	 1.6587500000e+002	 1.16371e-001
1456	 1.6593750000e+002	 3.12204e-002
1457	 1.6600000000e+002	 6.63217e-002
1458	 1.6606250000e+002	 9.80286e-002
1459	 1.6612500000e+002	 1.51835e-001
1460	 1.6618750000e+002	 1.09011e-001
1461	 1.6625000000e+002	 5.20095e-002
1462	 1.6631250000e+002	 1.17360e-001
1463	 1.6637500000e+002	 1.18948e-001
1464	 1.6643750000e+002	 1.03534e-001
1465	 1.6650000000e+002	 6.58005e-002
1466	 1.6656250000e+002	 5.69554e-002
1467	 1.6662500000e+002	 5.18239e-002
1468	 1.6668750000e+002	 6.60212e-002
1469	 1.6675000000e+002	 6.44463e-002
1470	 1.6681250000e+002	 7.11212e-002
1471	 1.6687500000e+002	 1.08592e-001
1472	 1.6693750000e+002	 6.16574e-002
1473	 1.6700000000e+002	 5.85852e-002
1474	 1.6706250000e+002	 6.35905e-002
1475	 1.6712500000e+002	 6.94636e-002
1476	 1.6718750000e+002	 7.02672e-002
1477	 1.6725000000e+002	 5.84239e-002
1478	 1.6731250000e+002	 7.08296e-002
1479	 1.6737500000e+002	 5.00059e-002
1480	 1.6743750000e+002	 6.01139e-002
1481	 1.6750000000e+002	 8.59789e-002
1482	 1.6756250000e+002	 5.53154e-002
1483	 1.6762500000e+002	 2.83842e-002
1484	 1.6768750000e+002	 4.76543e-002
1485	 1.6775000000e+002	 6.95766e-002
1486	 1.6781250000e+002	 5.53122e-002
1487	 1.6787500000e+002	 5.80327e-002
1488	 1.6793750000e+002	 6.46800e-002
1489	 1.6800000000e+002	 6.82939e-002
1490	 1.6806250000e+002	 5.78755e-002
1491	 1.6812500000e+002	 6.60109e-002
1492	 1.6818750000e+002	 1.09748e-001
1493	 1.6825000000e+002	 9.67652e-002
1494	 1.6831250000e+002	 4.94977e-002
1495	 1.6837500000e+002	 3.67566e-002
1496	 1.6843750000e+002	 4.72494e-002
1497	 1.6850000000e+002	 9.28601e-002
1498	 1.6856250000e+002	 6.19280e-002
1499	 1.6862500000e+002	 7.87130e-002
1500	 1.6868750000e+002	 3.36847e-002
1501	 1.6875000000e+002	 3.55110e-002
1502	 1.6881250000e+002	 5.62380e-002
1503	 1.6887500000e+002	 7.45241e-002
1504	 1.6893750000e+002	 1.38008e-001
1505	 1.6900000000e+002	 5.99716e-002
1506	 1.6906250000e+002	 4.49664e-002
1507	 1.6912500000e+002	 5.83554e-002
1508	 1.6918750000e+002	 7.12701e-002
1509	 1.6925000000e+002	 8.79196e-002
1510	 1.6931250000e+002	 1.56729e-001
1511	 1.6937500000e+002	 1.02456e-001
1512	 1.6943750000e+002	 2.85091e-002
1513	 1.6950000000e+002	 4.19935e-002
1514	 1.6956250000e+002	 5.51539e-002
1515	 1.6962500000e+002	 6.29855e-002
1516	 1.6968750000e+002	 4.38363e-002
1517	 1.6975000000e+002	 5.04340e-002
1518	 1.6981250000e+002	 7.31571e-002
1519	 1.6987500000e+002	 1.23527e-001
1520	 1.6993750000e+002	 9.72704e-002
1521	 1.7000000000e+002	 5.58011e-002
1522	 1.7006250000e+002	 3.21898e-002
1523	 1.7012500000e+002	 5.11053e-002
1524	 1.7018750000e+002	 4.10909e-002
1525	 1.7025000000e+002	 2.48398e-002
1526	 1.7031250000e+002	 1.92952e-002
1527	 1.7037500000e+002	 1.61735e-002
1528	 1.7043750000e+002	 2.77553e-002
1529	 1.7050000000e+002	 3.57535e-002
1530	 1.7056250000e+002	 3.52292e-002
1531	 1.7062500000e+002	 5.65731e-002
1532	 1.7068750000e+002	 5.99071e-002
1533	 1.7075000000e+002	 3.20110e-002
1534	 1.7081250000e+002	 2.86356e-002
1535	 1.7087500000e+002	 2.52435e-002
1536	 1.7093750000e+002	 4.45119e-002
1537	 1.7100000000e+002	 2.96294e-002
1538	 1.7106250000e+002	 3.46501e-002
1539	 1.7112500000e+002	 5.97977e-002
1540	 1.7118750000e+002	 7.52464e-002
1541	 1.7125000000e+002	 5.66053e-002
1542	 1.7131250000e+002	 3.31723e-002
1543	 1.7137500000e+002	 3.01697e-002
1544	 1.7143750000e+002	 2.94395e-002
1545	 1.7150000000e+002	 1.42264e-002
1546	 1.7156250000e+002	 1.90560e-002
1547	 1.7162500000e+002	 1.65024e-002
1548	 1.7168750000e+002	 2.52257e-002
1549	 1.7175000000e+002	 1.77132e-002
1550	 1.7181250000e+002	 1.89429e-002
1551	 1.7187500000e+002	 1.67191e-002
1552	 1.7193750000e+002	 1.41486e-002
1553	 1.7200000000e+002	 2.07462e-002
1554	 1.7206250000e+002	 2.93283e-002
1555	 1.7212500000e+002	 3.18684e-002
1556	 1.7218750000e+002	 5.63785e-002
1557	 1.7225000000e+002	 6.03856e-002
1558	 1.7231250000e+002	 3.48678e-002
1559	 1.7237500000e+002	 4.34000e-002
1560	 1.7243750000e+002	 2.40216e-002
1561	 1.7250000000e+002	 1.12929e-002
1562	 1.7256250000e+002	 2.97212e-002
1563	 1.7262500000e+002	 3.91310e-002
1564	 1.7268750000e+002	 3.79395e-002
1565	 1.7275000000e+002	 3.35398e-002
1566	 1.7281250000e+002	 3.08214e-002
1567	 1.7287500000e+002	 3.41171e-002
1568	 1.7293750000e+002	 1.49297e-002
1569	 1.7300000000e+002	 9.51455e-003
1570	 1.7306250000e+002	 1.82561e-002
1571	 1.7312500000e+002	 3.52874e-002
1572	 1.7318750000e+002	 2.44194e-002
1573	 1.7325000000e+002	 4.20390e-002
1574	 1.7331250000e+002	 3.24043e-002
1575	 1.7337500000e+002	 2.60377e-002
1576	 1.7343750000e+002	 2.47289e-002
1577	 1.7350000000e+002	 9.38774e-003
1578	 1.7356250000e+002	 1.48300e-002
1579	 1.7362500000e+002	 1.69636e-002
1580	 1.7368750000e+002	 4.09729e-002
1581	 1.7375000000e+002	 4.00337e-002
1582	 1.7381250000e+002	 3.61261e-002
1583	 1.7387500000e+002	 2.69317e-002
1584	 1.7393750000e+002	 1.52963e-002
1585	 1.7400000000e+002	 1.15251e-002
1586	 1.7406250000e+002	 1.00754e-002
1587	 1.7412500000e+002	 8.82918e-003
1588	 1.7418750000e+002	 1.30545e-002
1589	 1.7425000000e+002	 1.16967e-002
1590	 1.7431250000e+002	 1.59013e-002
1591	 1.7437500000e+002	 2.38257e-002
1592	 1.7443750000e+002	 1.93807e-002
1593	 1.7450000000e+002	 2.25715e-002
1594	 1.7456250000e+002	 2.18375e-002
1595	 1.7462500000e+002	 8.04636e-003
1596	 1.7468750000e+002	 1.56910e-002
1597	 1.7475000000e+002	 3.28010e-002
1598	 1.7481250000e+002	 4.83435e-002
1599	 1.7487500000e+002	 3.65986e-002
1600	 1.7493750000e+002	 1.27725e-002
1601	 1.7500000000e+002	 1.44924e-002
1602	 1.7506250000e+002	 3.36243e-002
1603	 1.7512500000e+002	 3.15354e-002
1604	 1.7518750000e+002	 1.99503e-002
1605	 1.7525000000e+002	 4.46020e-002
1606	 1.7531250000e+002	 3.39377e-002
1607	 1.7537500000e+002	 1.26918e-002
1608	 1.7543750000e+002	 1.24809e-002
1609	 1.7550000000e+002	 6.54583e-003
1610	 1.7556250000e+002	 1.96171e-002
1611	 1.7562500000e+002	 2.50497e-002
1612	 1.7568750000e+002	 6.32327e-003
1613	 1.7575000000e+002	 4.04485e-003
1614	 1.7581250000e+002	 5.04018e-003
1615	 1.7587500000e+002	 1.47408e-002
1616	 1.7593750000e+002	 1.73068e-002
1617	 1.7600000000e+002	 1.64014e-002
1618	 1.7606250000e+002	 2.83401e-002
1619	 1.7612500000e+002	 1.79399e-002
1620	 1.7618750000e+002	 1.16018e-002
1621	 1.7625000000e+002	 1.95141e-002
1622	 1.7631250000e+002	 2.17088e-002
1623	 1.7637500000e+002	 9.72620e-003
1624	 1.7643750000e+002	 2.20101e-002
1625	 1.7650000000e+002	 3.23774e-002
1626	 1.7656250000e+002	 1.53122e-002
1627	 1.7662500000e+002	 8.49969e-003
1628	 1.7668750000e+002	 6.95762e-003
1629	 1.7675000000e+002	 7.43566e-003
1630	 1.7681250000e+002	 1.39186e-002
1631	 1.7687500000e+002	 1.23484e-002
1632	 1.7693750000e+002	 1.94514e-002
1633	 1.7700000000e+002	 2.95976e-002
1634	 1.7706250000e+002	 1.78372e-002
1635	 1.7712500000e+002	 1.65736e-002
1636	 1.7718750000e+002	 1.63380e-002
1637	 1.7725000000e+002	 1.13372e-002
1638	 1.7731250000e+002	 7.56709e-003
1639	 1.7737500000e+002	 9.19809e-003
1640	 1.7743750000e+002	 1.88955e-002
1641	 1.7750000000e+002	 1.33852e-002
1642	 1.7756250000e+002	 4.18655e-003
1643	 1.7762500000e+002	 5.09371e-003
1644	 1.7768750000e+002	 6.33871e-003
1645	 1.7775000000e+002	 1.69567e-002
1646	 1.7781250000e+002	 1.91369e-002
1647	 1.7787500000e+002	 1.68819e-002
1648	 1.7793750000e+002	 1.40155e-002
1649	 1.7800000000e+002	 1.26629e-002
1650	 1.7806250000e+002	 1.36206e-002
1651	 1.7812500000e+002	 2.51651e-002
1652	 1.7818750000e+002	 2.31398e-002
1653	 1.7825000000e+002	 2.22119e-002
1654	 1.7831250000e+002	 1.81493e-002
1655	 1.7837500000e+002	 2.71228e-002
1656	 1.7843750000e+002	 2.69012e-002
1657	 1.7850000000e+002	 3.04338e-002
1658	 1.7856250000e+002	 1.27631e-002
1659	 1.7862500000e+002	 2.67523e-002
1660	 1.7868750000e+002	 1.72739e-002
1661	 1.7875000000e+002	 1.50988e-002
1662	 1.7881250000e+002	 1.98034e-002
1663	 1.7887500000e+002	 1.66081e-002
1664	 1.7893750000e+002	 1.24150e-002
1665	 1.7900000000e+002	 1.02475e-002
1666	 1.7906250000e+002	 6.98008e-003
1667	 1.7912500000e+002	 1.14657e-002
1668	 1.7918750000e+002	 9.42346e-003
1669	 1.7925000000e+002	 2.32021e-002
1670	 1.7931250000e+002	 1.68975e-002
1671	 1.7937500000e+002	 6.65337e-003
1672	 1.7943750000e+002	 9.71401e-003
1673	 1.7950000000e+002	 2.24257e-002
1674	 1.7956250000e+002	 1.72296e-002
1675	 1.7962500000e+002	 1.81726e-002
1676	 1.7968750000e+002	 1.10354e-002
1677	 1.7975000000e+002	 6.44883e-003
1678	 1.7981250000e+002	 9.75428e-003
1679	 1.7987500000e+002	 1.10529e-002
1680	 1.7993750000e+002	 1.13902e-002
1681	 1.8000000000e+002	 7.30902e-003
1682	 1.8006250000e+002	 9.31323e-003
1683	 1.8012500000e+002	 4.60856e-003
1684	 1.8018750000e+002	 4.31655e-003
1685	 1.8025000000e+002	 1.69269e-002
1686	 1.8031250000e+002	 1.07457e-002
1687	 1.8037500000e+002	 1.14811e-002
1688	 1.8043750000e+002	 4.53766e-002
1689	 1.8050000000e+002	 3.18419e-002
1690	 1.8056250000e+002	 1.56817e-002
1691	 1.8062500000e+002	 2.29502e-002
1692	 1.8068750000e+002	 4.16925e-002
1693	 1.8075000000e+002	 3.85412e-002
1694	 1.8081250000e+002	 2.18268e-002
1695	 1.8087500000e+002	 1.02831e-002
1696	 1.8093750000e+002	 1.02861e-002
1697	 1.8100000000e+002	 1.40004e-002
1698	 1.8106250000e+002	 2.02318e-002
1699	 1.8112500000e+002	 1.80856e-002
1700	 1.8118750000e+002	 4.11525e-003
1701	 1.8125000000e+002	 4.94183e-003
1702	 1.8131250000e+002	 1.46660e-002
1703	 1.8137500000e+002	 1.69827e-002
1704	 1.8143750000e+002	 1.21928e-002
1705	 1.8150000000e+002	 3.03453e-002
1706	 1.8156250000e+002	 2.79424e-002
1707	 1.8162500000e+002	 9.73499e-003
1708	 1.8168750000e+002	 1.47913e-002
1709	 1.8175000000e+002	 2.77016e-002
1710	 1.8181250000e+002	 1.06019e-002
1711	 1.8187500000e+002	 1.81297e-002
1712	 1.8193750000e+002	 4.80801e-002
1713	 1.8200000000e+002	 3.60374e-002
1714	 1.8206250000e+002	 1.78266e-002
1715	 1.8212500000e+002	 2.99737e-002
1716	 1.8218750000e+002	 1.21155e-002
1717	 1.8225000000e+002	 9.07917e-003
1718	 1.8231250000e+002	 1.45309e-002
1719	 1.8237500000e+002	 1.03910e-002
1720	 1.8243750000e+002	 8.71777e-003
1721	 1.8250000000e+002	 7.49718e-003
1722	 1.8256250000e+002	 5.10430e-003
1723	 1.8262500000e+002	 2.04728e-002
1724	 1.8268750000e+002	 1.82000e-002
1725	 1.8275000000e+002	 1.23605e-002
1726	 1.8281250000e+002	 1.09839e-002
1727	 1.8287500000e+002	 8.89181e-003
1728	 1.8293750000e+002	 1.31185e-002
1729	 1.8300000000e+002	 2.31965e-002
1730	 1.8306250000e+002	 1.72966e-002
1731	 1.8312500000e+002	 1.07955e-002
1732	 1.8318750000e+002	 1.66090e-002
1733	 1.8325000000e+002	 1.83288e-002
1734	 1.8331250000e+002	 1.83257e-002
1735	 1.8337500000e+002	 5.63130e-003
1736	 1.8343750000e+002	 1.64541e-002
1737	 1.8350000000e+002	 1.95320e-002
1738	 1.8356250000e+002	 2.23762e-002
1739	 1.8362500000e+002	 1.38964e-002
1740	 1.8368750000e+002	 2.30344e-002
1741	 1.8375000000e+002	 1.78978e-002
1742	 1.8381250000e+002	 2.38756e-002
1743	 1.8387500000e+002	 1.26866e-002
1744	 1.8393750000e+002	 1.06026e-002
1745	 1.8400000000e+002	 2.13996e-002
1746	 1.8406250000e+002	 1.48305e-002
1747	 1.8412500000e+002	 2.72077e-002
1748	 1.8418750000e+002	 3.22076e-002
1749	 1.8425000000e+002	 1.02966e-002
1750	 1.8431250000e+002	 1.30110e-002
1751	 1.8437500000e+002	 1.80602e-002
1752	 1.8443750000e+002	 1.88799e-002
1753	 1.8450000000e+002	 6.14986e-003
1754	 1.8456250000e+002	 9.78825e-003
1755	 1.8462500000e+002	 2.20098e-002
1756	 1.8468750000e+002	 1.51025e-002
1757	 1.8475000000e+002	 1.13679e-002
1758	 1.8481250000e+002	 1.65212e-002
1759	 1.8487500000e+002	 1.71770e-002
1760	 1.8493750000e+002	 4.67369e-003
1761	 1.8500000000e+002	 3.85788e-003
1762	 1.8506250000e+002	 6.77441e-003
1763	 1.8512500000e+002	 3.20245e-003
1764	 1.8518750000e+002	 5.25575e-003
1765	 1.8525000000e+002	 5.32079e-003
1766	 1.8531250000e+002	 8.74174e-003
1767	 1.8537500000e+002	 1.50913e-002
1768	 1.8543750000e+002	 1.73467e-002
1769	 1.8550000000e+002	 1.62519e-002
1770	 1.8556250000e+002	 1.27410e-002
1771	 1.8562500000e+002	 7.28858e-003
1772	 1.8568750000e+002	 5.20935e-003
1773	 1.8575000000e+002	 1.32334e-002
1774	 1.8581250000e+002	 1.34401e-002
1775	 1.8587500000e+002	 1.11326e-002
1776	 1.8593750000e+002	 9.82973e-003
1777	 1.8600000000e+002	 1.52072e-002
1778	 1.8606250000e+002	 1.08515e-002
1779	 1.8612500000e+002	 5.08458e-003
1780	 1.8618750000e+002	 8.48961e-003
1781	 1.8625000000e+002	 2.00134e-002
1782	 1.8631250000e+002	 2.51722e-002
1783	 1.8637500000e+002	 3.20864e-002
1784	 1.8643750000e+002	 1.20653e-002
1785	 1.8650000000e+002	 7.96749e-003
1786	 1.8656250000e+002	 1.39862e-002
1787	 1.8662500000e+002	 1.55209e-002
1788	 1.8668750000e+002	 3.08442e-002
1789	 1.8675000000e+002	 2.84888e-002
1790	 1.8681250000e+002	 6.22587e-003
1791	 1.8687500000e+002	 8.39966e-003
1792	 1.8693750000e+002	 9.67815e-003
1793	 1.8700000000e+002	 5.40134e-003
1794	 1.8706250000e+002	 3.49509e-003
1795	 1.8712500000e+002	 1.85888e-002
1796	 1.8718750000e+002	 2.21249e-002
1797	 1.8725000000e+002	 8.68646e-003
1798	 1.8731250000e+002	 1.42882e-002
1799	 1.8737500000e+002	 1.56853e-002
1800	 1.8743750000e+002	 6.17124e-003
1801	 1.8750000000e+002	 4.82584e-003
1802	 1.8756250000e+002	 3.03406e-003
1803	 1.8762500000e+002	 5.33881e-003
1804	 1.8768750000e+002	 9.45129e-003
1805	 1.8775000000e+002	 9.72468e-003
1806	 1.8781250000e+002	 1.38196e-002
1807	 1.8787500000e+002	 1.48602e-002
1808	 1.8793750000e+002	 1.12735e-002
1809	 1.8800000000e+002	 1.02878e-002
1810	 1.8806250000e+002	 1.43321e-002
1811	 1.8812500000e+002	 1.95743e-002
1812	 1.8818750000e+002	 4.18074e-003
1813	 1.8825000000e+002	 1.33034e-002
1814	 1.8831250000e+002	 1.45481e-002
1815	 1.8837500000e+002	 9.53666e-003
1816	 1.8843750000e+002	 1.08349e-002
1817	 1.8850000000e+002	 4.84543e-003
1818	 1.8856250000e+002	 3.31348e-003
1819	 1.8862500000e+002	 7.95820e-003
1820	 1.8868750000e+002	 1.57723e-002
1821	 1.8875000000e+002	 9.46427e-003
1822	 1.8881250000e+002	 9.38145e-003
1823	 1.8887500000e+002	 1.08196e-002
1824	 1.8893750000e+002	 1.20411e-002
1825	 1.8900000000e+002	 8.39806e-003
1826	 1.8906250000e+002	 6.90449e-003
1827	 1.8912500000e+002	 1.29287e-002
1828	 1.8918750000e+002	 9.56770e-003
1829	 1.8925000000e+002	 8.42387e-003
1830	 1.8931250000e+002	 8.33507e-003
1831	 1.8937500000e+002	 1.84561e-002
1832	 1.8943750000e+002	 1.73659e-002
1833	 1.8950000000e+002	 2.97940e-002
1834	 1.8956250000e+002	 3.10006e-002
1835	 1.8962500000e+002	 1.77420e-002
1836	 1.8968750000e+002	 3.96411e-003
1837	 1.8975000000e+002	 5.08217e-003
1838	 1.8981250000e+002	 3.14410e-003
1839	 1.8987500000e+002	 4.40582e-003
1840	 1.8993750000e+002	 1.03010e-002
1841	 1.9000000000e+002	 9.16247e-003
1842	 1.9006250000e+002	 8.57166e-003
1843	 1.9012500000e+002	 1.13530e-002
1844	 1.9018750000e+002	 7.87160e-003
1845	 1.9025000000e+002	 2.12287e-002
1846	 1.9031250000e+002	 2.30753e-002
1847	 1.9037500000e+002	 3.30543e-002
1848	 1.9043750000e+002	 3.12511e-002
1849	 1.9050000000e+002	 1.10536e-002
1850	 1.9056250000e+002	 1.39385e-002
1851	 1.9062500000e+002	 1.58351e-002
1852	 1.9068750000e+002	 1.53551e-002
1853	 1.9075000000e+002	 1.46730e-002
1854	 1.9081250000e+002	 1.20052e-002
1855	 1.9087500000e+002	 1.32659e-002
1856	 1.9093750000e+002	 2.25710e-002
1857	 1.9100000000e+002	 4.10941e-002
1858	 1.9106250000e+002	 1.80614e-002
1859	 1.9112500000e+002	 1.20045e-002
1860	 1.9118750000e+002	 1.80042e-002
1861	 1.9125000000e+002	 1.00187e-002
1862	 1.9131250000e+002	 1.51949e-002
1863	 1.9137500000e+002	 1.28185e-002
1864	 1.9143750000e+002	 1.66386e-002
1865	 1.9150000000e+002	 1.37191e-002
1866	 1.9156250000e+002	 1.02193e-002
1867	 1.9162500000e+002	 9.07735e-003
1868	 1.9168750000e+002	 1.79850e-002
1869	 1.9175000000e+002	 1.42667e-002
1870	 1.9181250000e+002	 1.08678e-002
1871	 1.9187500000e+002	 1.61624e-002
1872	 1.9193750000e+002	 1.22568e-002
1873	 1.9200000000e+002	 1.05673e-002
1874	 1.9206250000e+002	 1.23099e-002
1875	 1.9212500000e+002	 1.00288e-002
1876	 1.9218750000e+002	 2.88202e-002
1877	 1.9225000000e+002	 3.35098e-002
1878	 1.9231250000e+002	 1.90518e-002
1879	 1.9237500000e+002	 1.26102e-002
1880	 1.9243750000e+002	 2.11034e-002
1881	 1.9250000000e+002	 2.31339e-002
1882	 1.9256250000e+002	 1.72747e-002
1883	 1.9262500000e+002	 9.58048e-003
1884	 1.9268750000e+002	 7.52276e-003
1885	 1.9275000000e+002	 8.96756e-003
1886	 1.9281250000e+002	 1.89822e-002
1887	 1.9287500000e+002	 1.20114e-002
1888	 1.9293750000e+002	 8.19250e-003
1889	 1.9300000000e+002	 7.38370e-003
1890	 1.9306250000e+002	 5.48741e-003
1891	 1.9312500000e+002	 1.06924e-002
1892	 1.9318750000e+002	 1.09169e-002
1893	 1.9325000000e+002	 8.00421e-003
1894	 1.9331250000e+002	 1.76169e-002
1895	 1.9337500000e+002	 1.65208e-002
1896	 1.9343750000e+002	 7.54638e-003
1897	 1.9350000000e+002	 1.68105e-002
1898	 1.9356250000e+002	 1.22729e-002
1899	 1.9362500000e+002	 1.58612e-002
1900	 1.9368750000e+002	 1.80865e-002
1901	 1.9375000000e+002	 1.66576e-002
1902	 1.9381250000e+002	 6.92243e-003
1903	 1.9387500000e+002	 4.17943e-003
1904	 1.9393750000e+002	 7.79676e-003
1905	 1.9400000000e+002	 1.17398e-002
1906	 1.9406250000e+002	 1.55487e-002
1907	 1.9412500000e+002	 6.30859e-003
1908	 1.9418750000e+002	 5.84487e-003
1909	 1.9425000000e+002	 1.26122e-002
1910	 1.9431250000e+002	 1.02500e-002
1911	 1.9437500000e+002	 1.77564e-002
1912	 1.9443750000e+002	 2.31927e-002
1913	 1.9450000000e+002	 9.95216e-003
1914	 1.9456250000e+002	 1.18222e-002
1915	 1.9462500000e+002	 1.32788e-002
1916	 1.9468750000e+002	 2.52874e-002
1917	 1.9475000000e+002	 1.52428e-002
1918	 1.9481250000e+002	 1.45321e-002
1919	 1.9487500000e+002	 1.14245e-002
1920	 1.9493750000e+002	 4.81776e-003
1921	 1.9500000000e+002	 1.40123e-002
1922	 1.9506250000e+002	 1.85885e-002
1923	 1.9512500000e+002	 1.40331e-002
1924	 1.9518750000e+002	 1.15927e-002
1925	 1.9525000000e+002	 8.24651e-003
1926	 1.9531250000e+002	 1.43212e-002
1927	 1.9537500000e+002	 1.55113e-002
1928	 1.9543750000e+002	 1.53948e-002
1929	 1.9550000000e+002	 2.45014e-002
1930	 1.9556250000e+002	 1.75272e-002
1931	 1.9562500000e+002	 2.21114e-002
1932	 1.9568750000e+002	 3.09536e-002
1933	 1.9575000000e+002	 1.26526e-002
1934	 1.9581250000e+002	 9.40493e-003
1935	 1.9587500000e+002	 1.91476e-002
1936	 1.9593750000e+002	 1.83800e-002
1937	 1.9600000000e+002	 1.23110e-002
1938	 1.9606250000e+002	 1.29331e-002
1939	 1.9612500000e+002	 1.37634e-002
1940	 1.9618750000e+002	 1.68935e-002
1941	 1.9625000000e+002	 6.20457e-003
1942	 1.9631250000e+002	 6.12647e-003
1943	 1.9637500000e+002	 4.09528e-003
1944	 1.9643750000e+002	 1.56148e-003
1945	 1.9650000000e+002	 6.10157e-003
1946	 1.9656250000e+002	 9.36210e-003
1947	 1.9662500000e+002	 1.87534e-002
1948	 1.9668750000e+002	 2.61052e-002
1949	 1.9675000000e+002	 1.05069e-002
1950	 1.9681250000e+002	 5.15443e-003
1951	 1.9687500000e+002	 8.69750e-003
1952	 1.9693750000e+002	 3.40291e-002
1953	 1.9700000000e+002	 3.34640e-002
1954	 1.9706250000e+002	 2.16503e-002
1955	 1.9712500000e+002	 1.80311e-002
1956	 1.9718750000e+002	 2.11506e-002
1957	 1.9725000000e+002	 1.52380e-002
1958	 1.9731250000e+002	 1.87200e-002
1959	 1.9737500000e+002	 8.57592e-003
1960	 1.9743750000e+002	 1.04709e-002
1961	 1.9750000000e+002	 2.77441e-002
1962	 1.9756250000e+002	 3.24930e-002
1963	 1.9762500000e+002	 1.76429e-002
1964	 1.9768750000e+002	 1.24235e-002
1965	 1.9775000000e+002	 7.57304e-003
1966	 1.9781250000e+002	 5.54050e-003
1967	 1.9787500000e+002	 1.46102e-002
1968	 1.9793750000e+002	 3.59794e-002
1969	 1.9800000000e+002	 1.87018e-002
1970	 1.9806250000e+002	 1.17257e-002
1971	 1.9812500000e+002	 1.31080e-002
1972	 1.9818750000e+002	 1.69277e-002
1973	 1.9825000000e+002	 1.62055e-002
1974	 1.9831250000e+002	 2.24446e-002
1975	 1.9837500000e+002	 3.19466e-002
1976	 1.9843750000e+002	 2.86712e-002
1977	 1.9850000000e+002	 9.76857e-003
1978	 1.9856250000e+002	 1.01476e-002
1979	 1.9862500000e+002	 1.41542e-002
1980	 1.9868750000e+002	 1.04133e-002
1981	 1.9875000000e+002	 2.41820e-002
1982	 1.9881250000e+002	 3.05872e-002
1983	 1.9887500000e+002	 2.11423e-002
1984	 1.9893750000e+002	 1.94004e-002
1985	 1.9900000000e+002	 3.86558e-002
1986	 1.9906250000e+002	 3.14447e-002
1987	 1.9912500000e+002	 1.51544e-002
1988	 1.9918750000e+002	 2.20189e-002
1989	 1.9925000000e+002	 3.64108e-002
1990	 1.9931250000e+002	 8.41942e-003
1991	 1.9937500000e+002	 1.39533e-002
1992	 1.9943750000e+002	 2.25105e-002
1993	 1.9950000000e+002	 1.77522e-002
1994	 1.9956250000e+002	 8.88605e-003
1995	 1.9962500000e+002	 1.32052e-002
1996	 1.9968750000e+002	 1.13408e-002
1997	 1.9975000000e+002	 9.56894e-003
1998	 1.9981250000e+002	 1.38877e-002
1999	 1.9987500000e+002	 3.88971e-002
2000	 1.9993750000e+002	 3.27893e-002
2001	 2.0000000000e+002	 1.56408e-002
2002	 2.0006250000e+002	 1.28262e-002
2003	 2.0012500000e+002	 2.02829e-002
2004	 2.0018750000e+002	 2.82923e-002
2005	 2.0025000000e+002	 4.24628e-002
2006	 2.0031250000e+002	 3.18784e-002
2007	 2.0037500000e+002	 1.98244e-002
2008	 2.0043750000e+002	 1.26081e-002
2009	 2.0050000000e+002	 1.50419e-002
2010	 2.0056250000e+002	 1.60233e-002
2011	 2.0062500000e+002	 8.12047e-003
2012	 2.0068750000e+002	 1.52007e-002
2013	 2.0075000000e+002	 1.23194e-002
2014	 2.0081250000e+002	 6.99904e-003
2015	 2.0087500000e+002	 1.19844e-002
2016	 2.0093750000e+002	 1.65465e-002
2017	 2.0100000000e+002	 2.05618e-002
2018	 2.0106250000e+002	 1.45849e-002
2019	 2.0112500000e+002	 1.63563e-002
2020	 2.0118750000e+002	 2.05659e-002
2021	 2.0125000000e+002	 1.68048e-002
2022	 2.0131250000e+002	 8.23049e-003
2023	 2.0137500000e+002	 1.70800e-002
2024	 2.0143750000e+002	 1.20219e-002
2025	 2.0150000000e+002	 6.43565e-003
2026	 2.0156250000e+002	 1.19062e-002
2027	 2.0162500000e+002	 1.74118e-002
2028	 2.0168750000e+002	 5.00935e-002
2029	 2.0175000000e+002	 4.33352e-002
2030	 2.0181250000e+002	 2.43233e-002
2031	 2.0187500000e+002	 3.99555e-002
2032	 2.0193750000e+002	 2.56311e-002
2033	 2.0200000000e+002	 3.57254e-002
2034	 2.0206250000e+002	 3.28677e-002
2035	 2.0212500000e+002	 1.33578e-002
2036	 2.0218750000e+002	 1.83249e-002
2037	 2.0225000000e+002	 1.35709e-002
2038	 2.0231250000e+002	 2.26858e-002
2039	 2.0237500000e+002	 5.25679e-002
2040	 2.0243750000e+002	 4.04296e-002
2041	 2.0250000000e+002	 4.24594e-002
2042	 2.0256250000e+002	 2.26259e-002
2043	 2.0262500000e+002	 3.56771e-002
2044	 2.0268750000e+002	 2.63126e-002
2045	 2.0275000000e+002	 1.26536e-002
2046	 2.0281250000e+002	 3.01732e-002
2047	 2.0287500000e+002	 3.43611e-002
2048	 2.0293750000e+002	 4.22579e-002
2049	 2.0300000000e+002	 5.34918e-002
2050	 2.0306250000e+002	 3.85830e-002
2051	 2.0312500000e+002	 2.20893e-002
2052	 2.0318750000e+002	 1.99390e-002
2053	 2.0325000000e+002	 4.91972e-002
2054	 2.0331250000e+002	 4.15649e-002
2055	 2.0337500000e+002	 1.71376e-002
2056	 2.0343750000e+002	 1.60500e-002
2057	 2.0350000000e+002	 2.10804e-002
2058	 2.0356250000e+002	 5.25267e-002
2059	 2.0362500000e+002	 4.43998e-002
2060	 2.0368750000e+002	 1.61790e-002
2061	 2.0375000000e+002	 8.89859e-003
2062	 2.0381250000e+002	 2.75741e-002
2063	 2.0387500000e+002	 2.50879e-002
2064	 2.0393750000e+002	 1.86046e-002
2065	 2.0400000000e+002	 2.06596e-002
2066	 2.0406250000e+002	 5.48743e-002
2067	 2.0412500000e+002	 7.31352e-002
2068	 2.0418750000e+002	 4.01276e-002
2069	 2.0425000000e+002	 3.03629e-002
2070	 2.0431250000e+002	 2.64647e-002
2071	 2.0437500000e+002	 1.77571e-002
2072	 2.0443750000e+002	 1.50867e-002
2073	 2.0450000000e+002	 1.91893e-002
2074	 2.0456250000e+002	 2.10204e-002
2075	 2.0462500000e+002	 2.07642e-002
2076	 2.0468750000e+002	 2.75672e-002
2077	 2.0475000000e+002	 1.02065e-002
2078	 2.0481250000e+002	 5.92108e-002
2079	 2.0487500000e+002	 8.16069e-002
2080	 2.0493750000e+002	 3.58308e-002
2081	 2.0500000000e+002	 1.98669e-002
2082	 2.0506250000e+002	 2.18766e-002
2083	 2.0512500000e+002	 2.29606e-002
2084	 2.0518750000e+002	 5.60186e-002
2085	 2.0525000000e+002	 1.01177e-001
2086	 2.0531250000e+002	 4.74080e-002
2087	 2.0537500000e+002	 3.84417e-002
2088	 2.0543750000e+002	 3.99000e-002
2089	 2.0550000000e+002	 1.69092e-002
2090	 2.0556250000e+002	 2.56380e-002
2091	 2.0562500000e+002	 3.75237e-002
2092	 2.0568750000e+002	 3.55943e-002
2093	 2.0575000000e+002	 3.46401e-002
2094	 2.0581250000e+002	 3.00779e-002
2095	 2.0587500000e+002	 4.09628e-002
2096	 2.0593750000e+002	 3.55794e-002
2097	 2.0600000000e+002	 4.38157e-002
2098	 2.0606250000e+002	 4.20625e-002
2099	 2.0612500000e+002	 2.68644e-002
2100	 2.0618750000e+002	 2.97286e-002
2101	 2.0625000000e+002	 3.92089e-002
2102	 2.0631250000e+002	 3.90478e-002
2103	 2.0637500000e+002	 3.33795e-002
2104	 2.0643750000e+002	 1.81872e-002
2105	 2.0650000000e+002	 4.22003e-002
2106	 2.0656250000e+002	 2.22923e-002
2107	 2.0662500000e+002	 3.09467e-002
2108	 2.0668750000e+002	 1.56158e-001
2109	 2.0675000000e+002	 1.06898e-001
2110	 2.0681250000e+002	 6.03143e-002
2111	 2.0687500000e+002	 6.00632e-002
2112	 2.0693750000e+002	 4.25633e-002
2113	 2.0700000000e+002	 7.96498e-002
2114	 2.0706250000e+002	 8.49862e-002
2115	 2.0712500000e+002	 2.67204e-002
2116	 2.0718750000e+002	 1.29925e-002
2117	 2.0725000000e+002	 2.25201e-002
2118	 2.0731250000e+002	 4.88969e-002
2119	 2.0737500000e+002	 7.06575e-002
2120	 2.0743750000e+002	 3.32456e-002
2121	 2.0750000000e+002	 2.16297e-002
2122	 2.0756250000e+002	 5.48296e-002
2123	 2.0762500000e+002	 5.69154e-002
2124	 2.0768750000e+002	 1.64984e-002
2125	 2.0775000000e+002	 1.11831e-002
2126	 2.0781250000e+002	 4.37170e-002
2127	 2.0787500000e+002	 9.44073e-002
2128	 2.0793750000e+002	 1.22699e-001
2129	 2.0800000000e+002	 1.39342e-001
2130	 2.0806250000e+002	 5.64207e-002
2131	 2.0812500000e+002	 2.48744e-002
2132	 2.0818750000e+002	 5.90663e-002
2133	 2.0825000000e+002	 9.24539e-002
2134	 2.0831250000e+002	 4.46782e-002
2135	 2.0837500000e+002	 3.57964e-002
2136	 2.0843750000e+002	 3.49500e-002
2137	 2.0850000000e+002	 9.26917e-002
2138	 2.0856250000e+002	 1.21789e-001
2139	 2.0862500000e+002	 8.38094e-002
2140	 2.0868750000e+002	 9.91948e-002
2141	 2.0875000000e+002	 9.67502e-002
2142	 2.0881250000e+002	 7.29736e-002
2143	 2.0887500000e+002	 7.86115e-002
2144	 2.0893750000e+002	 5.49535e-002
2145	 2.0900000000e+002	 3.26837e-002
2146	 2.0906250000e+002	 6.26244e-002
2147	 2.0912500000e+002	 1.10643e-001
2148	 2.0918750000e+002	 2.05176e-001
2149	 2.0925000000e+002	 1.87697e-001
2150	 2.0931250000e+002	 3.72144e-002
2151	 2.0937500000e+002	 9.16065e-002
2152	 2.0943750000e+002	 1.39801e-001
2153	 2.0950000000e+002	 1.22665e-001
2154	 2.0956250000e+002	 1.72489e-001
2155	 2.0962500000e+002	 1.01105e-001
2156	 2.0968750000e+002	 1.37383e-001
2157	 2.0975000000e+002	 9.03486e-002
2158	 2.0981250000e+002	 4.42916e-002
2159	 2.0987500000e+002	 2.71923e-002
2160	 2.0993750000e+002	 6.24433e-002
2161	 2.1000000000e+002	 1.34788e-001
2162	 2.1006250000e+002	 1.03858e-001
2163	 2.1012500000e+002	 3.39459e-002
2164	 2.1018750000e+002	 8.01424e-002
2165	 2.1025000000e+002	 1.49072e-001
2166	 2.1031250000e+002	 1.55383e-001
2167	 2.1037500000e+002	 1.18576e-001
2168	 2.1043750000e+002	 4.98354e-002
2169	 2.1050000000e+002	 7.74986e-002
2170	 2.1056250000e+002	 1.60534e-001
2171	 2.1062500000e+002	 1.02907e-001
2172	 2.1068750000e+002	 1.74702e-001
2173	 2.1075000000e+002	 1.80706e-001
2174	 2.1081250000e+002	 7.00802e-002
2175	 2.1087500000e+002	 2.09410e-001
2176	 2.1093750000e+002	 3.43015e-001
2177	 2.1100000000e+002	 2.74970e-001
2178	 2.1106250000e+002	 1.10314e-001
2179	 2.1112500000e+002	 5.90663e-002
2180	 2.1118750000e+002	 9.86373e-002
2181	 2.1125000000e+002	 9.78880e-002
2182	 2.1131250000e+002	 9.01745e-002
2183	 2.1137500000e+002	 1.47199e-001
2184	 2.1143750000e+002	 2.31288e-001
2185	 2.1150000000e+002	 2.00352e-001
2186	 2.1156250000e+002	 3.52367e-001
2187	 2.1162500000e+002	 3.44038e-001
2188	 2.1168750000e+002	 3.81067e-001
2189	 2.1175000000e+002	 2.28184e-001
2190	 2.1181250000e+002	 2.62552e-001
2191	 2.1187500000e+002	 2.59834e-001
2192	 2.1193750000e+002	 1.33752e-001
2193	 2.1200000000e+002	 1.70717e-001
2194	 2.1206250000e+002	 3.41701e-001
2195	 2.1212500000e+002	 3.05522e-001
2196	 2.1218750000e+002	 9.41833e-002
2197	 2.1225000000e+002	 6.91146e-002
2198	 2.1231250000e+002	 1.62376e-001
2199	 2.1237500000e+002	 2.22791e-001
2200	 2.1243750000e+002	 1.54770e-001
2201	 2.1250000000e+002	 1.77531e-001
2202	 2.1256250000e+002	 2.32342e-001
2203	 2.1262500000e+002	 3.66458e-001
2204	 2.1268750000e+002	 6.13171e-001
2205	 2.1275000000e+002	 3.15528e-001
2206	 2.1281250000e+002	 1.25768e-001
2207	 2.1287500000e+002	 1.88978e-001
2208	 2.1293750000e+002	 1.42693e-001
2209	 2.1300000000e+002	 3.54265e-001
2210	 2.1306250000e+002	 4.75297e-001
2211	 2.1312500000e+002	 2.25401e-001
2212	 2.1318750000e+002	 1.96428e-001
2213	 2.1325000000e+002	 2.14104e-001
2214	 2.1331250000e+002	 4.11776e-001
2215	 2.1337500000e+002	 5.06207e-001
2216	 2.1343750000e+002	 5.31055e-001
2217	 2.1350000000e+002	 4.26437e-001
2218	 2.1356250000e+002	 3.92622e-001
2219	 2.1362500000e+002	 6.98237e-001
2220	 2.1368750000e+002	 4.35289e-001
2221	 2.1375000000e+002	 2.12085e-001
2222	 2.1381250000e+002	 3.88948e-001
2223	 2.1387500000e+002	 4.50207e-001
2224	 2.1393750000e+002	 3.02882e-001
2225	 2.1400000000e+002	 1.64521e-001
2226	 2.1406250000e+002	 3.07033e-001
2227	 2.1412500000e+002	 4.62053e-001
2228	 2.1418750000e+002	 3.73711e-001
2229	 2.1425000000e+002	 9.29864e-001
2230	 2.1431250000e+002	 8.83664e-001
2231	 2.1437500000e+002	 4.07233e-001
2232	 2.1443750000e+002	 7.40307e-001
2233	 2.1450000000e+002	 5.95954e-001
2234	 2.1456250000e+002	 1.59476e-001
2235	 2.1462500000e+002	 4.59148e-001
2236	 2.1468750000e+002	 8.60774e-001
2237	 2.1475000000e+002	 3.25562e-001
2238	 2.1481250000e+002	 1.00234e-001
2239	 2.1487500000e+002	 1.41530e-001
2240	 2.1493750000e+002	 6.38822e-001
2241	 2.1500000000e+002	 6.01018e-001
2242	 2.1506250000e+002	 4.43435e-001
2243	 2.1512500000e+002	 2.81050e-001
2244	 2.1518750000e+002	 4.10394e-001
2245	 2.1525000000e+002	 2.86902e-001
2246	 2.1531250000e+002	 4.69621e-001
2247	 2.1537500000e+002	 3.28444e-001
2248	 2.1543750000e+002	 3.20415e-001
2249	 2.1550000000e+002	 1.75216e-001
2250	 2.1556250000e+002	 2.45506e-001
2251	 2.1562500000e+002	 3.09114e-001
2252	 2.1568750000e+002	 3.83236e-001
2253	 2.1575000000e+002	 2.54541e-001
2254	 2.1581250000e+002	 1.62220e-001
2255	 2.1587500000e+002	 3.72582e-001
2256	 2.1593750000e+002	 2.28192e-001
2257	 2.1600000000e+002	 2.74606e-001
2258	 2.1606250000e+002	 4.46449e-001
2259	 2.1612500000e+002	 3.64324e-001
2260	 2.1618750000e+002	 1.72554e-001
2261	 2.1625000000e+002	 2.65615e-001
2262	 2.1631250000e+002	 2.28796e-001
2263	 2.1637500000e+002	 5.67230e-001
2264	 2.1643750000e+002	 9.44899e-001
2265	 2.1650000000e+002	 3.91456e-001
2266	 2.1656250000e+002	 2.17466e-001
2267	 2.1662500000e+002	 1.33394e-001
2268	 2.1668750000e+002	 1.37346e-001
2269	 2.1675000000e+002	 2.57107e-001
2270	 2.1681250000e+002	 2.78762e-001
2271	 2.1687500000e+002	 2.90131e-001
2272	 2.1693750000e+002	 3.06453e-001
2273	 2.1700000000e+002	 4.93157e-001
2274	 2.1706250000e+002	 5.11675e-001
2275	 2.1712500000e+002	 1.47649e-001
2276	 2.1718750000e+002	 6.25149e-002
2277	 2.1725000000e+002	 1.63637e-001
2278	 2.1731250000e+002	 2.57818e-001
2279	 2.1737500000e+002	 2.03981e-001
2280	 2.1743750000e+002	 3.06729e-001
2281	 2.1750000000e+002	 2.54919e-001
2282	 2.1756250000e+002	 1.64707e-001
2283	 2.1762500000e+002	 1.98605e-001
2284	 2.1768750000e+002	 1.04867e-001
2285	 2.1775000000e+002	 2.20637e-001
2286	 2.1781250000e+002	 1.80623e-001
2287	 2.1787500000e+002	 4.39333e-002
2288	 2.1793750000e+002	 1.38459e-001
2289	 2.1800000000e+002	 2.63858e-001
2290	 2.1806250000e+002	 2.06988e-001
2291	 2.1812500000e+002	 1.87417e-001
2292	 2.1818750000e+002	 1.15001e-001
2293	 2.1825000000e+002	 1.72227e-001
2294	 2.1831250000e+002	 1.81283e-001
2295	 2.1837500000e+002	 2.02248e-001
2296	 2.1843750000e+002	 1.25561e-001
2297	 2.1850000000e+002	 9.57062e-002
2298	 2.1856250000e+002	 5.34920e-002
2299	 2.1862500000e+002	 5.62174e-002
2300	 2.1868750000e+002	 1.44919e-001
2301	 2.1875000000e+002	 1.38621e-001
2302	 2.1881250000e+002	 1.23479e-001
2303	 2.1887500000e+002	 5.78278e-002
2304	 2.1893750000e+002	 1.22864e-001
2305	 2.1900000000e+002	 1.57712e-001
2306	 2.1906250000e+002	 1.50044e-001
2307	 2.1912500000e+002	 9.29421e-002
2308	 2.1918750000e+002	 9.97783e-002
2309	 2.1925000000e+002	 1.70455e-001
2310	 2.1931250000e+002	 9.48327e-002
2311	 2.1937500000e+002	 1.60976e-001
2312	 2.1943750000e+002	 1.24596e-001
2313	 2.1950000000e+002	 6.20137e-002
2314	 2.1956250000e+002	 7.39966e-002
2315	 2.1962500000e+002	 8.97475e-002
2316	 2.1968750000e+002	 1.13805e-001
2317	 2.1975000000e+002	 6.60368e-002
2318	 2.1981250000e+002	 1.04186e-001
2319	 2.1987500000e+002	 4.97154e-002
2320	 2.1993750000e+002	 7.18341e-002
2321	 2.2000000000e+002	 7.33262e-002
2322	 2.2006250000e+002	 5.94612e-002
2323	 2.2012500000e+002	 9.85502e-002
2324	 2.2018750000e+002	 1.36553e-001
2325	 2.2025000000e+002	 7.09750e-002
2326	 2.2031250000e+002	 6.54476e-002
2327	 2.2037500000e+002	 9.75562e-002
2328	 2.2043750000e+002	 1.27014e-001
2329	 2.2050000000e+002	 6.76511e-002
2330	 2.2056250000e+002	 5.50762e-002
2331	 2.2062500000e+002	 5.71526e-002
2332	 2.2068750000e+002	 8.26267e-002
2333	 2.2075000000e+002	 7.66968e-002
2334	 2.2081250000e+002	 1.13839e-001
2335	 2.2087500000e+002	 2.14678e-001
2336	 2.2093750000e+002	 1.34964e-001
2337	 2.2100000000e+002	 9.81238e-002
2338	 2.2106250000e+002	 2.23217e-001
2339	 2.2112500000e+002	 1.21805e-001
2340	 2.2118750000e+002	 2.43700e-002
2341	 2.2125000000e+002	 2.36402e-002
2342	 2.2131250000e+002	 4.76680e-002
2343	 2.2137500000e+002	 4.58851e-002
2344	 2.2143750000e+002	 4.21334e-002
2345	 2.2150000000e+002	 3.83115e-002
2346	 2.2156250000e+002	 2.81821e-002
2347	 2.2162500000e+002	 2.69322e-002
2348	 2.2168750000e+002	 9.40643e-002
2349	 2.2175000000e+002	 5.37385e-002
2350	 2.2181250000e+002	 4.85488e-002
2351	 2.2187500000e+002	 5.14142e-002
2352	 2.2193750000e+002	 3.38341e-002
2353	 2.2200000000e+002	 4.28252e-002
2354	 2.2206250000e+002	 2.29876e-002
2355	 2.2212500000e+002	 6.12254e-002
2356	 2.2218750000e+002	 9.16616e-002
2357	 2.2225000000e+002	 3.45625e-002
2358	 2.2231250000e+002	 3.30060e-002
2359	 2.2237500000e+002	 3.77935e-002
2360	 2.2243750000e+002	 3.03606e-002
2361	 2.2250000000e+002	 3.61377e-002
2362	 2.2256250000e+002	 3.56605e-002
2363	 2.2262500000e+002	 4.82155e-002
2364	 2.2268750000e+002	 4.41946e-002
2365	 2.2275000000e+002	 2.87895e-002
2366	 2.2281250000e+002	 1.52747e-002
2367	 2.2287500000e+002	 3.15188e-002
2368	 2.2293750000e+002	 4.81455e-002
2369	 2.2300000000e+002	 2.42089e-002
2370	 2.2306250000e+002	 1.04494e-002
2371	 2.2312500000e+002	 3.15604e-002
2372	 2.2318750000e+002	 7.26179e-002
2373	 2.2325000000e+002	 6.84163e-002
2374	 2.2331250000e+002	 4.91749e-002
2375	 2.2337500000e+002	 5.12267e-002
2376	 2.2343750000e+002	 3.07053e-002
2377	 2.2350000000e+002	 5.51081e-002
2378	 2.2356250000e+002	 4.74093e-002
2379	 2.2362500000e+002	 4.14422e-002
2380	 2.2368750000e+002	 5.41296e-002
2381	 2.2375000000e+002	 3.38868e-002
2382	 2.2381250000e+002	 1.07335e-002
2383	 2.2387500000e+002	 2.02607e-002
2384	 2.2393750000e+002	 5.07837e-002
2385	 2.2400000000e+002	 3.88836e-002
2386	 2.2406250000e+002	 3.10945e-002
2387	 2.2412500000e+002	 3.41165e-002
2388	 2.2418750000e+002	 7.66551e-002
2389	 2.2425000000e+002	 4.03404e-002
2390	 2.2431250000e+002	 1.51645e-002
2391	 2.2437500000e+002	 1.64396e-002
2392	 2.2443750000e+002	 1.81098e-002
2393	 2.2450000000e+002	 2.76807e-002
2394	 2.2456250000e+002	 2.30989e-002
2395	 2.2462500000e+002	 3.75823e-002
2396	 2.2468750000e+002	 4.87808e-002
2397	 2.2475000000e+002	 5.10114e-002
2398	 2.2481250000e+002	 1.03673e-001
2399	 2.2487500000e+002	 8.00180e-002
2400	 2.2493750000e+002	 1.91973e-002
2401	 2.2500000000e+002	 9.11073e-003
2402	 2.2506250000e+002	 1.87308e-002
2403	 2.2512500000e+002	 3.15111e-002
2404	 2.2518750000e+002	 1.95081e-002
2405	 2.2525000000e+002	 4.96844e-002
2406	 2.2531250000e+002	 3.41711e-002
2407	 2.2537500000e+002	 1.09879e-002
2408	 2.2543750000e+002	 1.08504e-002
2409	 2.2550000000e+002	 2.24680e-002
2410	 2.2556250000e+002	 3.09288e-002
2411	 2.2562500000e+002	 3.11847e-002
2412	 2.2568750000e+002	 4.19382e-002
2413	 2.2575000000e+002	 4.31102e-002
2414	 2.2581250000e+002	 3.76130e-002
2415	 2.2587500000e+002	 2.38917e-002
2416	 2.2593750000e+002	 3.28705e-002
2417	 2.2600000000e+002	 1.59806e-002
2418	 2.2606250000e+002	 2.43369e-002
2419	 2.2612500000e+002	 3.81843e-002
2420	 2.2618750000e+002	 2.25153e-002
2421	 2.2625000000e+002	 2.30997e-002
2422	 2.2631250000e+002	 3.61383e-002
2423	 2.2637500000e+002	 3.00566e-002
2424	 2.2643750000e+002	 3.19253e-002
2425	 2.2650000000e+002	 1.35296e-002
2426	 2.2656250000e+002	 2.57292e-002
2427	 2.2662500000e+002	 1.83696e-002
2428	 2.2668750000e+002	 5.66088e-003
2429	 2.2675000000e+002	 4.04684e-003
2430	 2.2681250000e+002	 8.41511e-003
2431	 2.2687500000e+002	 1.87696e-002
2432	 2.2693750000e+002	 3.47895e-002
2433	 2.2700000000e+002	 2.21760e-002
2434	 2.2706250000e+002	 1.35788e-002
2435	 2.2712500000e+002	 9.07958e-003
2436	 2.2718750000e+002	 1.64511e-002
2437	 2.2725000000e+002	 1.48835e-002
2438	 2.2731250000e+002	 1.44089e-002
2439	 2.2737500000e+002	 1.65972e-002
2440	 2.2743750000e+002	 2.41033e-002
2441	 2.2750000000e+002	 2.54601e-002
2442	 2.2756250000e+002	 1.91200e-002
2443	 2.2762500000e+002	 1.45040e-002
2444	 2.2768750000e+002	 4.34673e-002
2445	 2.2775000000e+002	 2.74244e-002
2446	 2.2781250000e+002	 1.58021e-002
2447	 2.2787500000e+002	 3.09521e-002
2448	 2.2793750000e+002	 3.76925e-002
2449	 2.2800000000e+002	 2.85562e-002
2450	 2.2806250000e+002	 1.36927e-002
2451	 2.2812500000e+002	 1.37897e-002
2452	 2.2818750000e+002	 2.14759e-002
2453	 2.2825000000e+002	 1.15963e-002
2454	 2.2831250000e+002	 1.78711e-002
2455	 2.2837500000e+002	 1.76496e-002
2456	 2.2843750000e+002	 2.37127e-002
2457	 2.2850000000e+002	 1.60573e-002
2458	 2.2856250000e+002	 5.33846e-003
2459	 2.2862500000e+002	 8.53939e-003
2460	 2.2868750000e+002	 7.36833e-003
2461	 2.2875000000e+002	 1.85841e-002
2462	 2.2881250000e+002	 2.24639e-002
2463	 2.2887500000e+002	 3.01443e-002
2464	 2.2893750000e+002	 2.44958e-002
2465	 2.2900000000e+002	 1.82784e-002
2466	 2.2906250000e+002	 8.57719e-003
2467	 2.2912500000e+002	 9.81831e-003
2468	 2.2918750000e+002	 1.24630e-002
2469	 2.2925000000e+002	 1.78963e-002
2470	 2.2931250000e+002	 1.42675e-002
2471	 2.2937500000e+002	 1.05572e-002
2472	 2.2943750000e+002	 1.46556e-002
2473	 2.2950000000e+002	 1.00075e-002
2474	 2.2956250000e+002	 8.97827e-003
2475	 2.2962500000e+002	 1.25564e-002
2476	 2.2968750000e+002	 7.40266e-003
2477	 2.2975000000e+002	 4.99100e-003
2478	 2.2981250000e+002	 4.75670e-003
2479	 2.2987500000e+002	 8.37963e-003
2480	 2.2993750000e+002	 1.78786e-002
2481	 2.3000000000e+002	 1.39134e-002
2482	 2.3006250000e+002	 1.74320e-002
2483	 2.3012500000e+002	 1.89046e-002
2484	 2.3018750000e+002	 2.59626e-002
2485	 2.3025000000e+002	 1.94998e-002
2486	 2.3031250000e+002	 1.04036e-002
2487	 2.3037500000e+002	 4.80291e-003
2488	 2.3043750000e+002	 1.42321e-002
2489	 2.3050000000e+002	 1.00631e-002
2490	 2.3056250000e+002	 4.17713e-003
2491	 2.3062500000e+002	 5.71688e-003
2492	 2.3068750000e+002	 9.47553e-003
2493	 2.3075000000e+002	 6.47968e-003
2494	 2.3081250000e+002	 6.81157e-003
2495	 2.3087500000e+002	 5.69289e-003
2496	 2.3093750000e+002	 5.78631e-003
2497	 2.3100000000e+002	 1.29936e-002
2498	 2.3106250000e+002	 1.24085e-002
2499	 2.3112500000e+002	 1.16024e-002
2500	 2.3118750000e+002	 7.92135e-003
2501	 2.3125000000e+002	 7.33722e-003
2502	 2.3131250000e+002	 8.34671e-003
2503	 2.3137500000e+002	 1.13254e-002
2504	 2.3143750000e+002	 2.54250e-002
2505	 2.3150000000e+002	 3.22264e-002
2506	 2.3156250000e+002	 1.70405e-002
2507	 2.3162500000e+002	 1.94961e-002
2508	 2.3168750000e+002	 2.92652e-002
2509	 2.3175000000e+002	 2.27839e-002
2510	 2.3181250000e+002	 7.56764e-003
2511	 2.3187500000e+002	 1.62840e-002
2512	 2.3193750000e+002	 1.29421e-002
2513	 2.3200000000e+002	 3.91060e-003
2514	 2.3206250000e+002	 5.34052e-003
2515	 2.3212500000e+002	 6.08295e-003
2516	 2.3218750000e+002	 8.93872e-003
2517	 2.3225000000e+002	 2.38562e-002
2518	 2.3231250000e+002	 2.47254e-002
2519	 2.3237500000e+002	 1.70503e-002
2520	 2.3243750000e+002	 1.23960e-002
2521	 2.3250000000e+002	 1.25776e-002
2522	 2.3256250000e+002	 1.08133e-002
2523	 2.3262500000e+002	 8.72182e-003
2524	 2.3268750000e+002	 9.59720e-003
2525	 2.3275000000e+002	 4.74881e-003
2526	 2.3281250000e+002	 3.59598e-003
2527	 2.3287500000e+002	 5.81993e-003
2528	 2.3293750000e+002	 1.06178e-002
2529	 2.3300000000e+002	 9.21732e-003
2530	 2.3306250000e+002	 3.63860e-003
2531	 2.3312500000e+002	 3.90743e-003
2532	 2.3318750000e+002	 5.73715e-003
2533	 2.3325000000e+002	 7.57861e-003
2534	 2.3331250000e+002	 1.57153e-002
2535	 2.3337500000e+002	 6.04709e-003
2536	 2.3343750000e+002	 1.40131e-002
2537	 2.3350000000e+002	 2.84312e-002
2538	 2.3356250000e+002	 1.89153e-002
2539	 2.3362500000e+002	 7.63018e-003
2540	 2.3368750000e+002	 3.69753e-003
2541	 2.3375000000e+002	 5.65577e-003
2542	 2.3381250000e+002	 8.94199e-003
2543	 2.3387500000e+002	 7.78422e-003
2544	 2.3393750000e+002	 5.95101e-003
2545	 2.3400000000e+002	 8.40156e-003
2546	 2.3406250000e+002	 7.11529e-003
2547	 2.3412500000e+002	 6.74713e-003
2548	 2.3418750000e+002	 6.47990e-003
2549	 2.3425000000e+002	 8.29555e-003
2550	 2.3431250000e+002	 3.99834e-003
2551	 2.3437500000e+002	 6.14204e-003
2552	 2.3443750000e+002	 1.06788e-002
2553	 2.3450000000e+002	 1.05008e-002
2554	 2.3456250000e+002	 7.83894e-003
2555	 2.3462500000e+002	 1.36391e-002
2556	 2.3468750000e+002	 1.50455e-002
2557	 2.3475000000e+002	 8.38043e-003
2558	 2.3481250000e+002	 1.08358e-002
2559	 2.3487500000e+002	 8.19538e-003
2560	 2.3493750000e+002	 2.04363e-002
2561	 2.3500000000e+002	 9.05154e-003
2562	 2.3506250000e+002	 6.94402e-003
2563	 2.3512500000e+002	 9.10495e-003
2564	 2.3518750000e+002	 7.50788e-003
2565	 2.3525000000e+002	 7.79613e-003
2566	 2.3531250000e+002	 1.39604e-002
2567	 2.3537500000e+002	 8.99377e-003
2568	 2.3543750000e+002	 8.79603e-003
2569	 2.3550000000e+002	 1.98367e-002
2570	 2.3556250000e+002	 1.30024e-002
2571	 2.3562500000e+002	 8.17275e-003
2572	 2.3568750000e+002	 4.60980e-003
2573	 2.3575000000e+002	 1.02149e-002
2574	 2.3581250000e+002	 1.97146e-002
2575	 2.3587500000e+002	 1.42779e-002
2576	 2.3593750000e+002	 6.49956e-003
2577	 2.3600000000e+002	 3.45379e-003
2578	 2.3606250000e+002	 3.95145e-003
2579	 2.3612500000e+002	 7.27115e-003
2580	 2.3618750000e+002	 1.45359e-002
2581	 2.3625000000e+002	 8.08585e-003
2582	 2.3631250000e+002	 4.14636e-003
2583	 2.3637500000e+002	 9.32994e-003
2584	 2.3643750000e+002	 1.36457e-002
2585	 2.3650000000e+002	 9.09869e-003
2586	 2.3656250000e+002	 1.20662e-002
2587	 2.3662500000e+002	 5.91246e-003
2588	 2.3668750000e+002	 6.41786e-003
2589	 2.3675000000e+002	 7.70842e-003
2590	 2.3681250000e+002	 6.91586e-003
2591	 2.3687500000e+002	 5.62306e-003
2592	 2.3693750000e+002	 1.01527e-002
2593	 2.3700000000e+002	 2.04064e-002
2594	 2.3706250000e+002	 1.32077e-002
2595	 2.3712500000e+002	 4.73928e-003
2596	 2.3718750000e+002	 9.38604e-003
2597	 2.3725000000e+002	 7.16892e-003
2598	 2.3731250000e+002	 3.93148e-003
2599	 2.3737500000e+002	 1.09589e-002
2600	 2.3743750000e+002	 1.15144e-002
2601	 2.3750000000e+002	 5.12555e-003
2602	 2.3756250000e+002	 2.63735e-003
2603	 2.3762500000e+002	 6.69359e-003
2604	 2.3768750000e+002	 1.13561e-002
2605	 2.3775000000e+002	 1.10750e-002
2606	 2.3781250000e+002	 1.42356e-002
2607	 2.3787500000e+002	 2.34618e-002
2608	 2.3793750000e+002	 1.02253e-002
2609	 2.3800000000e+002	 5.03184e-003
2610	 2.3806250000e+002	 5.86369e-003
2611	 2.3812500000e+002	 1.11585e-002
2612	 2.3818750000e+002	 1.14995e-002
2613	 2.3825000000e+002	 1.12348e-002
2614	 2.3831250000e+002	 6.99422e-003
2615	 2.3837500000e+002	 5.41661e-003
2616	 2.3843750000e+002	 3.36293e-003
2617	 2.3850000000e+002	 5.08866e-003
2618	 2.3856250000e+002	 4.61738e-003
2619	 2.3862500000e+002	 7.39044e-003
2620	 2.3868750000e+002	 1.15440e-002
2621	 2.3875000000e+002	 1.14205e-002
2622	 2.3881250000e+002	 1.41820e-002
2623	 2.3887500000e+002	 7.05868e-003
2624	 2.3893750000e+002	 1.18241e-002
2625	 2.3900000000e+002	 9.73357e-003
2626	 2.3906250000e+002	 1.10177e-002
2627	 2.3912500000e+002	 9.31337e-003
2628	 2.3918750000e+002	 8.88157e-003
2629	 2.3925000000e+002	 5.47786e-003
2630	 2.3931250000e+002	 1.95233e-003
2631	 2.3937500000e+002	 4.97428e-003
2632	 2.3943750000e+002	 1.20229e-002
2633	 2.3950000000e+002	 1.14942e-002
2634	 2.3956250000e+002	 6.27351e-003
2635	 2.3962500000e+002	 6.82734e-003
2636	 2.3968750000e+002	 5.42909e-003
2637	 2.3975000000e+002	 7.15627e-003
2638	 2.3981250000e+002	 1.54317e-002
2639	 2.3987500000e+002	 1.18785e-002
2640	 2.3993750000e+002	 1.98414e-002
2641	 2.4000000000e+002	 1.88289e-002
2642	 2.4006250000e+002	 4.09214e-003
2643	 2.4012500000e+002	 9.95712e-003
2644	 2.4018750000e+002	 1.19477e-002
2645	 2.4025000000e+002	 4.06840e-003
2646	 2.4031250000e+002	 4.24296e-003
2647	 2.4037500000e+002	 6.29684e-003
2648	 2.4043750000e+002	 6.74739e-003
2649	 2.4050000000e+002	 6.57546e-003
2650	 2.4056250000e+002	 1.25174e-002
2651	 2.4062500000e+002	 8.55131e-003
2652	 2.4068750000e+002	 4.27298e-003
2653	 2.4075000000e+002	 1.32886e-002
2654	 2.4081250000e+002	 1.25520e-002
2655	 2.4087500000e+002	 1.54292e-002
2656	 2.4093750000e+002	 1.89033e-002
2657	 2.4100000000e+002	 1.64116e-002
2658	 2.4106250000e+002	 1.20213e-002
2659	 2.4112500000e+002	 6.82710e-003
2660	 2.4118750000e+002	 7.93026e-003
2661	 2.4125000000e+002	 6.16746e-003
2662	 2.4131250000e+002	 8.17081e-003
2663	 2.4137500000e+002	 1.49620e-002
2664	 2.4143750000e+002	 1.41280e-002
2665	 2.4150000000e+002	 1.71870e-002
2666	 2.4156250000e+002	 7.91866e-003
2667	 2.4162500000e+002	 3.16413e-003
2668	 2.4168750000e+002	 9.59312e-003
2669	 2.4175000000e+002	 1.25064e-002
2670	 2.4181250000e+002	 5.47403e-003
2671	 2.4187500000e+002	 1.23578e-002
2672	 2.4193750000e+002	 1.04472e-002
2673	 2.4200000000e+002	 5.71357e-003
2674	 2.4206250000e+002	 8.44529e-003
2675	 2.4212500000e+002	 9.60963e-003
2676	 2.4218750000e+002	 8.38162e-003
2677	 2.4225000000e+002	 3.82869e-003
2678	 2.4231250000e+002	 3.93926e-003
2679	 2.4237500000e+002	 1.04376e-002
2680	 2.4243750000e+002	 1.34206e-002
2681	 2.4250000000e+002	 4.87994e-003
2682	 2.4256250000e+002	 6.83469e-003
2683	 2.4262500000e+002	 9.08282e-003
2684	 2.4268750000e+002	 7.18244e-003
2685	 2.4275000000e+002	 3.44176e-003
2686	 2.4281250000e+002	 4.30671e-003
2687	 2.4287500000e+002	 4.21807e-003
2688	 2.4293750000e+002	 3.89530e-003
2689	 2.4300000000e+002	 8.85328e-003
2690	 2.4306250000e+002	 1.30467e-002
2691	 2.4312500000e+002	 1.26137e-002
2692	 2.4318750000e+002	 7.77509e-003
2693	 2.4325000000e+002	 7.24584e-003
2694	 2.4331250000e+002	 4.67569e-003
2695	 2.4337500000e+002	 9.30639e-003
2696	 2.4343750000e+002	 1.43534e-002
2697	 2.4350000000e+002	 7.01850e-003
2698	 2.4356250000e+002	 9.45371e-003
2699	 2.4362500000e+002	 9.31528e-003
2700	 2.4368750000e+002	 9.53045e-003
2701	 2.4375000000e+002	 8.98499e-003
2702	 2.4381250000e+002	 6.28105e-003
2703	 2.4387500000e+002	 6.74914e-003
2704	 2.4393750000e+002	 5.85727e-003
2705	 2.4400000000e+002	 3.40196e-003
2706	 2.4406250000e+002	 5.99963e-003
2707	 2.4412500000e+002	 1.04492e-002
2708	 2.4418750000e+002	 6.60032e-003
2709	 2.4425000000e+002	 4.77947e-003
2710	 2.4431250000e+002	 6.85263e-003
2711	 2.4437500000e+002	 9.18588e-003
2712	 2.4443750000e+002	 1.12287e-002
2713	 2.4450000000e+002	 9.73554e-003
2714	 2.4456250000e+002	 5.82374e-003
2715	 2.4462500000e+002	 5.29870e-003
2716	 2.4468750000e+002	 8.41973e-003
2717	 2.4475000000e+002	 1.03576e-002
2718	 2.4481250000e+002	 1.00642e-002
2719	 2.4487500000e+002	 8.72742e-003
2720	 2.4493750000e+002	 1.91386e-002
2721	 2.4500000000e+002	 1.42257e-002
2722	 2.4506250000e+002	 4.72725e-003
2723	 2.4512500000e+002	 6.27828e-003
2724	 2.4518750000e+002	 1.36806e-002
2725	 2.4525000000e+002	 5.55355e-003
2726	 2.4531250000e+002	 6.08319e-003
2727	 2.4537500000e+002	 1.01486e-002
2728	 2.4543750000e+002	 9.92443e-003
2729	 2.4550000000e+002	 1.61553e-002
2730	 2.4556250000e+002	 7.65891e-003
2731	 2.4562500000e+002	 6.71984e-003
2732	 2.4568750000e+002	 1.62923e-002
2733	 2.4575000000e+002	 1.85887e-002
2734	 2.4581250000e+002	 1.24922e-002
2735	 2.4587500000e+002	 8.92829e-003
2736	 2.4593750000e+002	 9.93980e-003
2737	 2.4600000000e+002	 6.43542e-003
2738	 2.4606250000e+002	 6.29107e-003
2739	 2.4612500000e+002	 5.30503e-003
2740	 2.4618750000e+002	 8.94084e-003
2741	 2.4625000000e+002	 1.20508e-002
2742	 2.4631250000e+002	 1.39522e-002
2743	 2.4637500000e+002	 1.37377e-002
2744	 2.4643750000e+002	 7.41094e-003
2745	 2.4650000000e+002	 6.96915e-003
2746	 2.4656250000e+002	 1.27143e-002
2747	 2.4662500000e+002	 1.80463e-002
2748	 2.4668750000e+002	 9.97393e-003
2749	 2.4675000000e+002	 1.28219e-002
2750	 2.4681250000e+002	 1.06894e-002
2751	 2.4687500000e+002	 1.50388e-002
2752	 2.4693750000e+002	 1.09868e-002
2753	 2.4700000000e+002	 1.25930e-002
2754	 2.4706250000e+002	 1.53201e-002
2755	 2.4712500000e+002	 1.07868e-002
2756	 2.4718750000e+002	 5.16607e-003
2757	 2.4725000000e+002	 5.26963e-003
2758	 2.4731250000e+002	 9.16319e-003
2759	 2.4737500000e+002	 8.82195e-003
2760	 2.4743750000e+002	 8.36609e-003
2761	 2.4750000000e+002	 8.14776e-003
2762	 2.4756250000e+002	 6.40329e-003
2763	 2.4762500000e+002	 9.34258e-003
2764	 2.4768750000e+002	 6.81224e-003
2765	 2.4775000000e+002	 6.97387e-003
2766	 2.4781250000e+002	 9.15774e-003
2767	 2.4787500000e+002	 7.81423e-003
2768	 2.4793750000e+002	 5.51996e-003
2769	 2.4800000000e+002	 5.58940e-003
2770	 2.4806250000e+002	 6.74831e-003
2771	 2.4812500000e+002	 7.29609e-003
2772	 2.4818750000e+002	 4.98681e-003
2773	 2.4825000000e+002	 4.57114e-003
2774	 2.4831250000e+002	 5.74653e-003
2775	 2.4837500000e+002	 9.00499e-003
2776	 2.4843750000e+002	 6.76177e-003
2777	 2.4850000000e+002	 4.79986e-003
2778	 2.4856250000e+002	 1.12220e-002
2779	 2.4862500000e+002	 1.19714e-002
2780	 2.4868750000e+002	 1.45455e-002
2781	 2.4875000000e+002	 1.73553e-002
2782	 2.4881250000e+002	 5.58026e-003
2783	 2.4887500000e+002	 4.95011e-003
2784	 2.4893750000e+002	 7.00405e-003
2785	 2.4900000000e+002	 8.06517e-003
2786	 2.4906250000e+002	 2.36019e-002
2787	 2.4912500000e+002	 1.96726e-002
2788	 2.4918750000e+002	 4.31623e-003
2789	 2.4925000000e+002	 2.97275e-003
2790	 2.4931250000e+002	 5.57524e-003
2791	 2.4937500000e+002	 8.16742e-003
2792	 2.4943750000e+002	 8.39235e-003
2793	 2.4950000000e+002	 1.24107e-002
2794	 2.4956250000e+002	 6.56415e-003
2795	 2.4962500000e+002	 3.15243e-003
2796	 2.4968750000e+002	 3.65685e-003
2797	 2.4975000000e+002	 6.55220e-003
2798	 2.4981250000e+002	 1.00451e-002
2799	 2.4987500000e+002	 6.65509e-003
2800	 2.4993750000e+002	 9.96798e-003
2801	 2.5000000000e+002	 1.57625e-002
2802	 2.5006250000e+002	 1.55100e-002
2803	 2.5012500000e+002	 7.66443e-003
2804	 2.5018750000e+002	 7.46316e-003
2805	 2.5025000000e+002	 4.94701e-003
2806	 2.5031250000e+002	 8.71089e-003
2807	 2.5037500000e+002	 1.02303e-002
2808	 2.5043750000e+002	 1.40161e-002
2809	 2.5050000000e+002	 9.54769e-003
2810	 2.5056250000e+002	 1.95489e-002
2811	 2.5062500000e+002	 8.90765e-003
2812	 2.5068750000e+002	 1.07655e-002
2813	 2.5075000000e+002	 1.03406e-002
2814	 2.5081250000e+002	 7.46592e-003
2815	 2.5087500000e+002	 5.91575e-003
2816	 2.5093750000e+002	 5.79958e-003
2817	 2.5100000000e+002	 7.14635e-003
2818	 2.5106250000e+002	 1.36715e-002
2819	 2.5112500000e+002	 1.33177e-002
2820	 2.5118750000e+002	 1.08615e-002
2821	 2.5125000000e+002	 9.59428e-003
2822	 2.5131250000e+002	 1.80476e-002
2823	 2.5137500000e+002	 2.13382e-002
2824	 2.5143750000e+002	 1.55060e-002
2825	 2.5150000000e+002	 1.65876e-002
2826	 2.5156250000e+002	 1.03409e-002
2827	 2.5162500000e+002	 7.84585e-003
2828	 2.5168750000e+002	 5.00569e-003
2829	 2.5175000000e+002	 6.42287e-003
2830	 2.5181250000e+002	 1.23125e-002
2831	 2.5187500000e+002	 7.68315e-003
2832	 2.5193750000e+002	 5.31305e-003
2833	 2.5200000000e+002	 5.14990e-003
2834	 2.5206250000e+002	 7.52848e-003
2835	 2.5212500000e+002	 1.30269e-002
2836	 2.5218750000e+002	 2.16966e-002
2837	 2.5225000000e+002	 1.69256e-002
2838	 2.5231250000e+002	 3.20098e-002
2839	 2.5237500000e+002	 1.24928e-002
2840	 2.5243750000e+002	 1.42090e-002
2841	 2.5250000000e+002	 1.38579e-002
2842	 2.5256250000e+002	 1.27397e-002
2843	 2.5262500000e+002	 1.14279e-002
2844	 2.5268750000e+002	 7.53080e-003
2845	 2.5275000000e+002	 1.15446e-002
2846	 2.5281250000e+002	 1.62292e-002
2847	 2.5287500000e+002	 1.48883e-002
2848	 2.5293750000e+002	 1.99631e-002
2849	 2.5300000000e+002	 1.22303e-002
2850	 2.5306250000e+002	 1.97568e-002
2851	 2.5312500000e+002	 1.60125e-002
2852	 2.5318750000e+002	 1.38307e-002
2853	 2.5325000000e+002	 9.99112e-003
2854	 2.5331250000e+002	 1.12069e-002
2855	 2.5337500000e+002	 4.90158e-003
2856	 2.5343750000e+002	 5.35593e-003
2857	 2.5350000000e+002	 8.85894e-003
2858	 2.5356250000e+002	 1.84790e-002
2859	 2.5362500000e+002	 2.41395e-002
2860	 2.5368750000e+002	 2.85520e-002
2861	 2.5375000000e+002	 2.23620e-002
2862	 2.5381250000e+002	 1.24609e-002
2863	 2.5387500000e+002	 2.90130e-003
2864	 2.5393750000e+002	 7.33567e-003
2865	 2.5400000000e+002	 1.85590e-002
2866	 2.5406250000e+002	 1.79766e-002
2867	 2.5412500000e+002	 5.52138e-003
2868	 2.5418750000e+002	 2.59950e-003
2869	 2.5425000000e+002	 4.65066e-003
2870	 2.5431250000e+002	 1.39042e-002
2871	 2.5437500000e+002	 1.77755e-002
2872	 2.5443750000e+002	 1.34553e-002
2873	 2.5450000000e+002	 2.35081e-002
2874	 2.5456250000e+002	 2.44554e-002
2875	 2.5462500000e+002	 2.02903e-002
2876	 2.5468750000e+002	 8.94401e-003
2877	 2.5475000000e+002	 1.10874e-002
2878	 2.5481250000e+002	 1.52897e-002
2879	 2.5487500000e+002	 1.13392e-002
2880	 2.5493750000e+002	 1.54161e-002
2881	 2.5500000000e+002	 1.20013e-002
2882	 2.5506250000e+002	 6.98224e-003
2883	 2.5512500000e+002	 1.70912e-002
2884	 2.5518750000e+002	 1.47372e-002
2885	 2.5525000000e+002	 4.81594e-003
2886	 2.5531250000e+002	 2.96877e-003
2887	 2.5537500000e+002	 6.63815e-003
2888	 2.5543750000e+002	 9.25124e-003
2889	 2.5550000000e+002	 1.62583e-002
2890	 2.5556250000e+002	 1.88137e-002
2891	 2.5562500000e+002	 1.50462e-002
2892	 2.5568750000e+002	 2.83279e-002
2893	 2.5575000000e+002	 3.47605e-002
2894	 2.5581250000e+002	 3.12560e-002
2895	 2.5587500000e+002	 2.69110e-002
2896	 2.5593750000e+002	 1.20553e-002
2897	 2.5600000000e+002	 8.15653e-003
2898	 2.5606250000e+002	 5.31597e-003
2899	 2.5612500000e+002	 6.23788e-003
2900	 2.5618750000e+002	 1.35139e-002
2901	 2.5625000000e+002	 2.48033e-002
2902	 2.5631250000e+002	 3.14739e-002
2903	 2.5637500000e+002	 1.73748e-002
2904	 2.5643750000e+002	 2.86101e-002
2905	 2.5650000000e+002	 1.86571e-002
2906	 2.5656250000e+002	 1.27652e-002
2907	 2.5662500000e+002	 2.70214e-002
2908	 2.5668750000e+002	 2.68842e-002
2909	 2.5675000000e+002	 1.54069e-002
2910	 2.5681250000e+002	 7.49723e-003
2911	 2.5687500000e+002	 1.83662e-002
2912	 2.5693750000e+002	 3.82425e-002
2913	 2.5700000000e+002	 3.39581e-002
2914	 2.5706250000e+002	 3.97573e-002
2915	 2.5712500000e+002	 5.43138e-002
2916	 2.5718750000e+002	 2.08681e-002
2917	 2.5725000000e+002	 1.60312e-002
2918	 2.5731250000e+002	 3.08629e-002
2919	 2.5737500000e+002	 2.57418e-002
2920	 2.5743750000e+002	 1.74439e-002
2921	 2.5750000000e+002	 1.56041e-002
2922	 2.5756250000e+002	 7.81067e-003
2923	 2.5762500000e+002	 4.78116e-003
2924	 2.5768750000e+002	 1.80942e-002
2925	 2.5775000000e+002	 4.14238e-002
2926	 2.5781250000e+002	 3.30260e-002
2927	 2.5787500000e+002	 3.15101e-002
2928	 2.5793750000e+002	 3.54143e-002
2929	 2.5800000000e+002	 1.84587e-002
2930	 2.5806250000e+002	 1.08678e-002
2931	 2.5812500000e+002	 1.53182e-002
2932	 2.5818750000e+002	 2.01167e-002
2933	 2.5825000000e+002	 3.87947e-002
2934	 2.5831250000e+002	 3.16222e-002
2935	 2.5837500000e+002	 2.36169e-002
2936	 2.5843750000e+002	 1.34354e-002
2937	 2.5850000000e+002	 4.36186e-002
2938	 2.5856250000e+002	 5.91717e-002
2939	 2.5862500000e+002	 9.44145e-002
2940	 2.5868750000e+002	 8.34009e-002
2941	 2.5875000000e+002	 3.00644e-002
2942	 2.5881250000e+002	 3.04393e-002
2943	 2.5887500000e+002	 6.03451e-002
2944	 2.5893750000e+002	 4.56493e-002
2945	 2.5900000000e+002	 2.47299e-002
2946	 2.5906250000e+002	 2.33407e-002
2947	 2.5912500000e+002	 4.54119e-002
2948	 2.5918750000e+002	 6.90053e-002
2949	 2.5925000000e+002	 6.11405e-002
2950	 2.5931250000e+002	 3.37065e-002
2951	 2.5937500000e+002	 3.75823e-002
2952	 2.5943750000e+002	 4.10075e-002
2953	 2.5950000000e+002	 4.42086e-002
2954	 2.5956250000e+002	 3.47651e-002
2955	 2.5962500000e+002	 1.98447e-002
2956	 2.5968750000e+002	 3.35293e-002
2957	 2.5975000000e+002	 4.61546e-002
2958	 2.5981250000e+002	 5.26232e-002
2959	 2.5987500000e+002	 1.16486e-001
2960	 2.5993750000e+002	 4.93718e-002
2961	 2.6000000000e+002	 3.27445e-002
2962	 2.6006250000e+002	 1.00591e-001
2963	 2.6012500000e+002	 8.94750e-002
2964	 2.6018750000e+002	 2.00609e-002
2965	 2.6025000000e+002	 2.29931e-002
2966	 2.6031250000e+002	 3.76777e-002
2967	 2.6037500000e+002	 6.58433e-002
2968	 2.6043750000e+002	 3.89141e-002
2969	 2.6050000000e+002	 3.42142e-002
2970	 2.6056250000e+002	 4.35348e-002
2971	 2.6062500000e+002	 6.27562e-002
2972	 2.6068750000e+002	 1.18723e-001
2973	 2.6075000000e+002	 1.15309e-001
2974	 2.6081250000e+002	 1.56192e-001
2975	 2.6087500000e+002	 8.13420e-002
2976	 2.6093750000e+002	 2.06404e-002
2977	 2.6100000000e+002	 3.23715e-002
2978	 2.6106250000e+002	 4.00177e-002
2979	 2.6112500000e+002	 1.66995e-002
2980	 2.6118750000e+002	 4.06567e-002
2981	 2.6125000000e+002	 1.33364e-001
2982	 2.6131250000e+002	 1.34578e-001
2983	 2.6137500000e+002	 3.99976e-002
2984	 2.6143750000e+002	 4.38192e-002
2985	 2.6150000000e+002	 7.54482e-002
2986	 2.6156250000e+002	 4.74959e-002
2987	 2.6162500000e+002	 3.01547e-002
2988	 2.6168750000e+002	 4.70431e-002
2989	 2.6175000000e+002	 7.19630e-002
2990	 2.6181250000e+002	 8.53722e-002
2991	 2.6187500000e+002	 7.52337e-002
2992	 2.6193750000e+002	 7.81009e-002
2993	 2.6200000000e+002	 4.71519e-002
2994	 2.6206250000e+002	 5.02107e-002
2995	 2.6212500000e+002	 8.01795e-002
2996	 2.6218750000e+002	 4.57247e-002
2997	 2.6225000000e+002	 7.23742e-002
2998	 2.6231250000e+002	 1.88719e-001
2999	 2.6237500000e+002	 6.13579e-002
3000	 2.6243750000e+002	 3.36729e-002
3001	 2.6250000000e+002	 1.14797e-001
3002	 2.6256250000e+002	 1.86085e-001
3003	 2.6262500000e+002	 1.35214e-001
3004	 2.6268750000e+002	 5.54125e-002
3005	 2.6275000000e+002	 6.54833e-002
3006	 2.6281250000e+002	 1.91904e-001
3007	 2.6287500000e+002	 1.22005e-001
3008	 2.6293750000e+002	 8.02083e-002
3009	 2.6300000000e+002	 7.07140e-002
3010	 2.6306250000e+002	 8.86351e-002
3011	 2.6312500000e+002	 1.90281e-001
3012	 2.6318750000e+002	 1.37847e-001
3013	 2.6325000000e+002	 7.17791e-002
3014	 2.6331250000e+002	 3.34681e-002
3015	 2.6337500000e+002	 4.04785e-002
3016	 2.6343750000e+002	 5.30688e-002
3017	 2.6350000000e+002	 5.25707e-002
3018	 2.6356250000e+002	 1.53156e-002
3019	 2.6362500000e+002	 3.70311e-002
3020	 2.6368750000e+002	 7.89222e-002
3021	 2.6375000000e+002	 4.91422e-002
3022	 2.6381250000e+002	 1.17517e-001
3023	 2.6387500000e+002	 2.20847e-001
3024	 2.6393750000e+002	 2.28726e-001
3025	 2.6400000000e+002	 2.27089e-001
3026	 2.6406250000e+002	 1.30504e-001
3027	 2.6412500000e+002	 1.64279e-001
3028	 2.6418750000e+002	 1.58434e-001
3029	 2.6425000000e+002	 2.49391e-001
3030	 2.6431250000e+002	 2.40228e-001
3031	 2.6437500000e+002	 8.95028e-002
3032	 2.6443750000e+002	 9.10089e-002
3033	 2.6450000000e+002	 8.74433e-002
3034	 2.6456250000e+002	 1.41662e-001
3035	 2.6462500000e+002	 1.43282e-001
3036	 2.6468750000e+002	 6.95056e-002
3037	 2.6475000000e+002	 1.03326e-001
3038	 2.6481250000e+002	 2.09762e-001
3039	 2.6487500000e+002	 3.71163e-001
3040	 2.6493750000e+002	 2.47569e-001
3041	 2.6500000000e+002	 1.51348e-001
3042	 2.6506250000e+002	 9.01179e-002
3043	 2.6512500000e+002	 1.47508e-001
3044	 2.6518750000e+002	 2.02668e-001
3045	 2.6525000000e+002	 1.73684e-001
3046	 2.6531250000e+002	 1.80872e-001
3047	 2.6537500000e+002	 2.26590e-001
3048	 2.6543750000e+002	 1.91410e-001
3049	 2.6550000000e+002	 2.17600e-001
3050	 2.6556250000e+002	 2.04583e-001
3051	 2.6562500000e+002	 2.60086e-001
3052	 2.6568750000e+002	 2.09590e-001
3053	 2.6575000000e+002	 2.34531e-001
3054	 2.6581250000e+002	 1.62530e-001
3055	 2.6587500000e+002	 8.75526e-002
3056	 2.6593750000e+002	 1.75263e-001
3057	 2.6600000000e+002	 3.13530e-001
3058	 2.6606250000e+002	 3.68420e-001
3059	 2.6612500000e+002	 5.27299e-001
3060	 2.6618750000e+002	 4.74736e-001
3061	 2.6625000000e+002	 2.59825e-001
3062	 2.6631250000e+002	 2.82071e-001
3063	 2.6637500000e+002	 3.50534e-001
3064	 2.6643750000e+002	 3.65439e-001
3065	 2.6650000000e+002	 3.21557e-001
3066	 2.6656250000e+002	 2.16785e-001
3067	 2.6662500000e+002	 2.85532e-001
3068	 2.6668750000e+002	 2.70275e-001
3069	 2.6675000000e+002	 2.53610e-001
3070	 2.6681250000e+002	 4.34057e-001
3071	 2.6687500000e+002	 3.40173e-001
3072	 2.6693750000e+002	 2.58684e-001
3073	 2.6700000000e+002	 3.95776e-001
3074	 2.6706250000e+002	 3.13099e-001
3075	 2.6712500000e+002	 2.52084e-001
3076	 2.6718750000e+002	 3.06481e-001
3077	 2.6725000000e+002	 2.50773e-001
3078	 2.6731250000e+002	 2.66634e-001
3079	 2.6737500000e+002	 3.49202e-001
3080	 2.6743750000e+002	 5.27729e-001
3081	 2.6750000000e+002	 2.85052e-001
3082	 2.6756250000e+002	 4.86327e-001
3083	 2.6762500000e+002	 6.60048e-001
3084	 2.6768750000e+002	 7.09708e-001
3085	 2.6775000000e+002	 4.44741e-001
3086	 2.6781250000e+002	 2.71162e-001
3087	 2.6787500000e+002	 3.74066e-001
3088	 2.6793750000e+002	 2.76969e-001
3089	 2.6800000000e+002	 3.69441e-001
3090	 2.6806250000e+002	 3.41024e-001
3091	 2.6812500000e+002	 3.49250e-001
3092	 2.6818750000e+002	 6.10897e-001
3093	 2.6825000000e+002	 5.45537e-001
3094	 2.6831250000e+002	 2.72912e-001
3095	 2.6837500000e+002	 4.55191e-001
3096	 2.6843750000e+002	 4.30072e-001
3097	 2.6850000000e+002	 2.89175e-001
3098	 2.6856250000e+002	 1.90795e-001
3099	 2.6862500000e+002	 3.48697e-001
3100	 2.6868750000e+002	 4.41071e-001
3101	 2.6875000000e+002	 2.35983e-001
3102	 2.6881250000e+002	 1.32056e-001
3103	 2.6887500000e+002	 1.11418e-001
3104	 2.6893750000e+002	 5.20953e-002
3105	 2.6900000000e+002	 5.43149e-002
3106	 2.6906250000e+002	 1.26103e-001
3107	 2.6912500000e+002	 7.38681e-002
3108	 2.6918750000e+002	 9.97472e-002
3109	 2.6925000000e+002	 1.67264e-001
3110	 2.6931250000e+002	 1.86571e-001
3111	 2.6937500000e+002	 2.24359e-001
3112	 2.6943750000e+002	 7.04124e-002
3113	 2.6950000000e+002	 3.87767e-002
3114	 2.6956250000e+002	 5.01943e-002
3115	 2.6962500000e+002	 6.48320e-002
3116	 2.6968750000e+002	 9.48725e-002
3117	 2.6975000000e+002	 5.87990e-002
3118	 2.6981250000e+002	 8.87722e-002
3119	 2.6987500000e+002	 1.40529e-001
3120	 2.6993750000e+002	 8.96905e-002
3121	 2.7000000000e+002	 1.25855e-001
3122	 2.7006250000e+002	 1.68983e-001
3123	 2.7012500000e+002	 1.24223e-001
3124	 2.7018750000e+002	 1.47315e-001
3125	 2.7025000000e+002	 1.32933e-001
3126	 2.7031250000e+002	 6.80670e-002
3127	 2.7037500000e+002	 8.19266e-002
3128	 2.7043750000e+002	 5.81316e-002
3129	 2.7050000000e+002	 5.18658e-002
3130	 2.7056250000e+002	 3.11591e-002
3131	 2.7062500000e+002	 4.10930e-002
3132	 2.7068750000e+002	 4.86744e-002
3133	 2.7075000000e+002	 4.10161e-002
3134	 2.7081250000e+002	 5.14270e-002
3135	 2.7087500000e+002	 7.40895e-002
3136	 2.7093750000e+002	 6.03669e-002
3137	 2.7100000000e+002	 1.15021e-001
3138	 2.7106250000e+002	 9.29223e-002
3139	 2.7112500000e+002	 1.26144e-001
3140	 2.7118750000e+002	 1.61117e-001
3141	 2.7125000000e+002	 7.49813e-002
3142	 2.7131250000e+002	 3.67786e-002
3143	 2.7137500000e+002	 8.12771e-002
3144	 2.7143750000e+002	 6.20178e-002
3145	 2.7150000000e+002	 3.24990e-002
3146	 2.7156250000e+002	 4.23509e-002
3147	 2.7162500000e+002	 8.39863e-002
3148	 2.7168750000e+002	 9.73553e-002
3149	 2.7175000000e+002	 8.12435e-002
3150	 2.7181250000e+002	 7.24910e-002
3151	 2.7187500000e+002	 1.24359e-001
3152	 2.7193750000e+002	 8.92670e-002
3153	 2.7200000000e+002	 7.33304e-002
3154	 2.7206250000e+002	 5.10361e-002
3155	 2.7212500000e+002	 2.23207e-002
3156	 2.7218750000e+002	 6.02337e-002
3157	 2.7225000000e+002	 6.38239e-002
3158	 2.7231250000e+002	 6.91966e-002
3159	 2.7237500000e+002	 1.16416e-001
3160	 2.7243750000e+002	 5.40178e-002
3161	 2.7250000000e+002	 4.20932e-002
3162	 2.7256250000e+002	 2.27714e-002
3163	 2.7262500000e+002	 2.51589e-002
3164	 2.7268750000e+002	 4.26416e-002
3165	 2.7275000000e+002	 3.50321e-002
3166	 2.7281250000e+002	 7.25313e-002
3167	 2.7287500000e+002	 5.51376e-002
3168	 2.7293750000e+002	 6.68484e-002
3169	 2.7300000000e+002	 1.14707e-001
3170	 2.7306250000e+002	 8.12837e-002
3171	 2.7312500000e+002	 4.54258e-002
3172	 2.7318750000e+002	 4.64242e-002
3173	 2.7325000000e+002	 3.93320e-002
3174	 2.7331250000e+002	 5.26864e-002
3175	 2.7337500000e+002	 2.85684e-002
3176	 2.7343750000e+002	 1.41879e-002
3177	 2.7350000000e+002	 3.47793e-002
3178	 2.7356250000e+002	 3.88940e-002
3179	 2.7362500000e+002	 4.88764e-002
3180	 2.7368750000e+002	 2.93137e-002
3181	 2.7375000000e+002	 6.54529e-002
3182	 2.7381250000e+002	 1.01017e-001
3183	 2.7387500000e+002	 7.54189e-002
3184	 2.7393750000e+002	 3.30693e-002
3185	 2.7400000000e+002	 1.09545e-002
3186	 2.7406250000e+002	 1.34388e-002
3187	 2.7412500000e+002	 1.54694e-002
3188	 2.7418750000e+002	 1.11170e-002
3189	 2.7425000000e+002	 3.02341e-002
3190	 2.7431250000e+002	 2.74302e-002
3191	 2.7437500000e+002	 2.78359e-002
3192	 2.7443750000e+002	 6.12237e-002
3193	 2.7450000000e+002	 4.85191e-002
3194	 2.7456250000e+002	 1.59447e-002
3195	 2.7462500000e+002	 3.58791e-002
3196	 2.7468750000e+002	 4.54648e-002
3197	 2.7475000000e+002	 3.08297e-002
3198	 2.7481250000e+002	 2.30104e-002
3199	 2.7487500000e+002	 2.60613e-002
3200	 2.7493750000e+002	 2.36631e-002
3201	 2.7500000000e+002	 2.48734e-002
TagsBegin:	 	 
OverLoad:	 	False
AverageNumber: []	 	 3.50000e+001
OverLoadRatio: []	 	 1.19209e-007
TagsEnd:	 	 
TagScalesBegin:	 	 
TagScalesEnd:	 	 
