Header Size:	 78	 
Pulse Version:	 42	 
Decimal Symbol:	.	 
Date Format:	dd-MM-yyyy	 
Time Format:	HH:mm:ss:mmm	 
Data Type:	Real	 
Slice:	False	 
Z-Axis type:	Linear	 
Z-Axis size:	1	 
Z-Axis unit:	 	 
Z-Axis first value:	 0.0000000000e+000	 
Z-Axis delta:	 1.0000000000e+000	 
X-Axis type:	Linear	 
X-Axis size:	3201	 
X-Axis unit:	Hz	 
X-Axis first value:	 7.5000000000e+001	 
X-Axis delta:	 6.2500000000e-002	 
	 	 
AmplitudeUnit:	Pa	 
Analyzer:	FFT_Spectrum_Averaging	 
AnalyzerName:	FFT Analyzer	 
	 	 
	 	 
Bipolar:	False	 
CenterFrequency:	 1.7500000000e+002	 
	 	 
	 	 
	 	 
	 	 
dBReference:	 4.0000000000e-010	 
	 	 
	 	 
	 	 
Domain:	1	 
Function:	Autospectrum	 
	 	 
InputRange:	 2.2376582278e+002	 
	 	 
	 	 
MultiBufferName:	Input	 
NBW:	 1.5000000000e+000	 
	 	 
OverlapFailed:	False	 
Overrun:	False	 
Power:	True	 
PowerUnit:	Pa²	 
	 	 
RecordLength:	 1.6000000000e+001	 
ReducedSize:	True	 
	 	 
	 	 
	 	 
	 	 
	 	 
SamplingRatio:	 1.2800000000e+000	 
Signal:	p_A_source	 
	 	 
SignalUnit:	Pa	 
	 	 
	 	 
	 	 
Title:	Autospectrum(p_A_source) - Input	 
Title1:	Working : Input : Input : FFT Analyzer	 
	 	 
	 	 
Weight:	0	 
ZoomOn:	True	 
	 	 
TemplateName:	Working	 
MeasurementName:	Input	 
MeasurementSlice:	False	 
	 	 
DeltaFrequency:	 6.2500000000e-002	 
	 	 
EnvelopeOn:	False	 
	 	 
	 	 
	 	 
Z-index:	 	1
Date:	 	05-03-2025
Time:	 	12:34:02:987
Relative time:	 	 0.00000e+000
Z-axis:	 	 0.0000000000e+000
1	 7.5000000000e+001	 1.59063e-003
2	 7.5062500000e+001	 1.55809e-003
3	 7.5125000000e+001	 2.19208e-003
4	 7.5187500000e+001	 2.73766e-003
5	 7.5250000000e+001	 2.76649e-003
6	 7.5312500000e+001	 3.38646e-003
7	 7.5375000000e+001	 3.52080e-003
8	 7.5437500000e+001	 2.72413e-003
9	 7.5500000000e+001	 2.07613e-003
10	 7.5562500000e+001	 3.03848e-003
11	 7.5625000000e+001	 3.38441e-003
12	 7.5687500000e+001	 2.65733e-003
13	 7.5750000000e+001	 4.94690e-003
14	 7.5812500000e+001	 5.06134e-003
15	 7.5875000000e+001	 2.14787e-003
16	 7.5937500000e+001	 4.93367e-003
17	 7.6000000000e+001	 4.41213e-003
18	 7.6062500000e+001	 2.57983e-003
19	 7.6125000000e+001	 2.51673e-003
20	 7.6187500000e+001	 1.37364e-003
21	 7.6250000000e+001	 2.36925e-003
22	 7.6312500000e+001	 2.11382e-003
23	 7.6375000000e+001	 1.71550e-003
24	 7.6437500000e+001	 2.52274e-003
25	 7.6500000000e+001	 2.78135e-003
26	 7.6562500000e+001	 1.55417e-003
27	 7.6625000000e+001	 3.16359e-003
28	 7.6687500000e+001	 2.80272e-003
29	 7.6750000000e+001	 1.95577e-003
30	 7.6812500000e+001	 2.55218e-003
31	 7.6875000000e+001	 2.45349e-003
32	 7.6937500000e+001	 2.40646e-003
33	 7.7000000000e+001	 1.26397e-003
34	 7.7062500000e+001	 1.66580e-003
35	 7.7125000000e+001	 1.70311e-003
36	 7.7187500000e+001	 1.69436e-003
37	 7.7250000000e+001	 2.23824e-003
38	 7.7312500000e+001	 2.71267e-003
39	 7.7375000000e+001	 2.00248e-003
40	 7.7437500000e+001	 2.23648e-003
41	 7.7500000000e+001	 1.10199e-003
42	 7.7562500000e+001	 4.80587e-004
43	 7.7625000000e+001	 1.14168e-003
44	 7.7687500000e+001	 2.95624e-003
45	 7.7750000000e+001	 2.94990e-003
46	 7.7812500000e+001	 4.32375e-003
47	 7.7875000000e+001	 3.56943e-003
48	 7.7937500000e+001	 2.23827e-003
49	 7.8000000000e+001	 6.30136e-004
50	 7.8062500000e+001	 1.16853e-003
51	 7.8125000000e+001	 2.68411e-003
52	 7.8187500000e+001	 3.37696e-003
53	 7.8250000000e+001	 3.23464e-003
54	 7.8312500000e+001	 2.34574e-003
55	 7.8375000000e+001	 2.18493e-003
56	 7.8437500000e+001	 2.36226e-003
57	 7.8500000000e+001	 1.96412e-003
58	 7.8562500000e+001	 1.33183e-003
59	 7.8625000000e+001	 2.10495e-003
60	 7.8687500000e+001	 2.21995e-003
61	 7.8750000000e+001	 2.72479e-003
62	 7.8812500000e+001	 1.93998e-003
63	 7.8875000000e+001	 2.10956e-003
64	 7.8937500000e+001	 2.22785e-003
65	 7.9000000000e+001	 1.73938e-003
66	 7.9062500000e+001	 3.18257e-003
67	 7.9125000000e+001	 2.06367e-003
68	 7.9187500000e+001	 1.46178e-003
69	 7.9250000000e+001	 2.70469e-003
70	 7.9312500000e+001	 2.33974e-003
71	 7.9375000000e+001	 3.27318e-003
72	 7.9437500000e+001	 1.64394e-003
73	 7.9500000000e+001	 2.36589e-003
74	 7.9562500000e+001	 2.02307e-003
75	 7.9625000000e+001	 2.45453e-003
76	 7.9687500000e+001	 5.34518e-003
77	 7.9750000000e+001	 3.44263e-003
78	 7.9812500000e+001	 1.69465e-003
79	 7.9875000000e+001	 2.07873e-003
80	 7.9937500000e+001	 1.93108e-003
81	 8.0000000000e+001	 3.15907e-003
82	 8.0062500000e+001	 2.41288e-003
83	 8.0125000000e+001	 2.61964e-003
84	 8.0187500000e+001	 2.79848e-003
85	 8.0250000000e+001	 3.39802e-003
86	 8.0312500000e+001	 2.22018e-003
87	 8.0375000000e+001	 1.68865e-003
88	 8.0437500000e+001	 1.47975e-003
89	 8.0500000000e+001	 2.68674e-003
90	 8.0562500000e+001	 2.30604e-003
91	 8.0625000000e+001	 2.81824e-003
92	 8.0687500000e+001	 2.46866e-003
93	 8.0750000000e+001	 2.65126e-003
94	 8.0812500000e+001	 2.12237e-003
95	 8.0875000000e+001	 3.19182e-003
96	 8.0937500000e+001	 2.48002e-003
97	 8.1000000000e+001	 1.01236e-003
98	 8.1062500000e+001	 1.29584e-003
99	 8.1125000000e+001	 1.39177e-003
100	 8.1187500000e+001	 1.30791e-003
101	 8.1250000000e+001	 1.78701e-003
102	 8.1312500000e+001	 1.75135e-003
103	 8.1375000000e+001	 2.01446e-003
104	 8.1437500000e+001	 1.23314e-003
105	 8.1500000000e+001	 1.75916e-003
106	 8.1562500000e+001	 2.50245e-003
107	 8.1625000000e+001	 2.17746e-003
108	 8.1687500000e+001	 2.38835e-003
109	 8.1750000000e+001	 3.19562e-003
110	 8.1812500000e+001	 3.88369e-003
111	 8.1875000000e+001	 3.14763e-003
112	 8.1937500000e+001	 1.81193e-003
113	 8.2000000000e+001	 1.88613e-003
114	 8.2062500000e+001	 1.86047e-003
115	 8.2125000000e+001	 2.99384e-003
116	 8.2187500000e+001	 4.80308e-003
117	 8.2250000000e+001	 4.54151e-003
118	 8.2312500000e+001	 4.66529e-003
119	 8.2375000000e+001	 4.87686e-003
120	 8.2437500000e+001	 3.05340e-003
121	 8.2500000000e+001	 2.23601e-003
122	 8.2562500000e+001	 2.43135e-003
123	 8.2625000000e+001	 2.98909e-003
124	 8.2687500000e+001	 2.93215e-003
125	 8.2750000000e+001	 2.57050e-003
126	 8.2812500000e+001	 3.36763e-003
127	 8.2875000000e+001	 4.24987e-003
128	 8.2937500000e+001	 1.67019e-003
129	 8.3000000000e+001	 2.23704e-003
130	 8.3062500000e+001	 3.16621e-003
131	 8.3125000000e+001	 2.06338e-003
132	 8.3187500000e+001	 1.71916e-003
133	 8.3250000000e+001	 1.69032e-003
134	 8.3312500000e+001	 1.86020e-003
135	 8.3375000000e+001	 3.17382e-003
136	 8.3437500000e+001	 3.41016e-003
137	 8.3500000000e+001	 1.76215e-003
138	 8.3562500000e+001	 1.45188e-003
139	 8.3625000000e+001	 2.20932e-003
140	 8.3687500000e+001	 2.83246e-003
141	 8.3750000000e+001	 2.32039e-003
142	 8.3812500000e+001	 1.93579e-003
143	 8.3875000000e+001	 2.59129e-003
144	 8.3937500000e+001	 2.88625e-003
145	 8.4000000000e+001	 2.47577e-003
146	 8.4062500000e+001	 1.24526e-003
147	 8.4125000000e+001	 1.84447e-003
148	 8.4187500000e+001	 3.13644e-003
149	 8.4250000000e+001	 3.52638e-003
150	 8.4312500000e+001	 3.29970e-003
151	 8.4375000000e+001	 1.95754e-003
152	 8.4437500000e+001	 2.22064e-003
153	 8.4500000000e+001	 2.62106e-003
154	 8.4562500000e+001	 4.85643e-003
155	 8.4625000000e+001	 2.73073e-003
156	 8.4687500000e+001	 4.32014e-003
157	 8.4750000000e+001	 6.22601e-003
158	 8.4812500000e+001	 4.30457e-003
159	 8.4875000000e+001	 3.09373e-003
160	 8.4937500000e+001	 2.14532e-003
161	 8.5000000000e+001	 1.80888e-003
162	 8.5062500000e+001	 2.03675e-003
163	 8.5125000000e+001	 2.67592e-003
164	 8.5187500000e+001	 2.41754e-003
165	 8.5250000000e+001	 9.18756e-004
166	 8.5312500000e+001	 1.09065e-003
167	 8.5375000000e+001	 2.28886e-003
168	 8.5437500000e+001	 2.51954e-003
169	 8.5500000000e+001	 9.53213e-004
170	 8.5562500000e+001	 7.59391e-004
171	 8.5625000000e+001	 1.68327e-003
172	 8.5687500000e+001	 1.42766e-003
173	 8.5750000000e+001	 2.74906e-003
174	 8.5812500000e+001	 2.30826e-003
175	 8.5875000000e+001	 5.24219e-004
176	 8.5937500000e+001	 1.11780e-003
177	 8.6000000000e+001	 2.10632e-003
178	 8.6062500000e+001	 2.14442e-003
179	 8.6125000000e+001	 1.83150e-003
180	 8.6187500000e+001	 3.74299e-003
181	 8.6250000000e+001	 3.72419e-003
182	 8.6312500000e+001	 2.84519e-003
183	 8.6375000000e+001	 2.70984e-003
184	 8.6437500000e+001	 1.24906e-003
185	 8.6500000000e+001	 1.91379e-003
186	 8.6562500000e+001	 3.86878e-003
187	 8.6625000000e+001	 3.13199e-003
188	 8.6687500000e+001	 2.07496e-003
189	 8.6750000000e+001	 1.51705e-003
190	 8.6812500000e+001	 2.00433e-003
191	 8.6875000000e+001	 2.73450e-003
192	 8.6937500000e+001	 2.27007e-003
193	 8.7000000000e+001	 1.69842e-003
194	 8.7062500000e+001	 3.34975e-003
195	 8.7125000000e+001	 2.31735e-003
196	 8.7187500000e+001	 4.25634e-003
197	 8.7250000000e+001	 3.41937e-003
198	 8.7312500000e+001	 2.87605e-003
199	 8.7375000000e+001	 2.40990e-003
200	 8.7437500000e+001	 2.22044e-003
201	 8.7500000000e+001	 1.95461e-003
202	 8.7562500000e+001	 3.78925e-003
203	 8.7625000000e+001	 5.01552e-003
204	 8.7687500000e+001	 2.93833e-003
205	 8.7750000000e+001	 2.26089e-003
206	 8.7812500000e+001	 2.37644e-003
207	 8.7875000000e+001	 4.50060e-003
208	 8.7937500000e+001	 5.95935e-003
209	 8.8000000000e+001	 4.42019e-003
210	 8.8062500000e+001	 1.75545e-003
211	 8.8125000000e+001	 2.95776e-003
212	 8.8187500000e+001	 3.03398e-003
213	 8.8250000000e+001	 2.85717e-003
214	 8.8312500000e+001	 4.68647e-003
215	 8.8375000000e+001	 3.71023e-003
216	 8.8437500000e+001	 4.29749e-003
217	 8.8500000000e+001	 5.94333e-003
218	 8.8562500000e+001	 5.26288e-003
219	 8.8625000000e+001	 4.18759e-003
220	 8.8687500000e+001	 3.67509e-003
221	 8.8750000000e+001	 3.52152e-003
222	 8.8812500000e+001	 3.04816e-003
223	 8.8875000000e+001	 5.93630e-003
224	 8.8937500000e+001	 5.08870e-003
225	 8.9000000000e+001	 3.07764e-003
226	 8.9062500000e+001	 3.13524e-003
227	 8.9125000000e+001	 4.84085e-003
228	 8.9187500000e+001	 5.36549e-003
229	 8.9250000000e+001	 2.91066e-003
230	 8.9312500000e+001	 4.08051e-003
231	 8.9375000000e+001	 3.79229e-003
232	 8.9437500000e+001	 2.46081e-003
233	 8.9500000000e+001	 4.97277e-003
234	 8.9562500000e+001	 6.19541e-003
235	 8.9625000000e+001	 3.06804e-003
236	 8.9687500000e+001	 3.53747e-003
237	 8.9750000000e+001	 4.78427e-003
238	 8.9812500000e+001	 3.20509e-003
239	 8.9875000000e+001	 3.63761e-003
240	 8.9937500000e+001	 8.01328e-003
241	 9.0000000000e+001	 4.97805e-003
242	 9.0062500000e+001	 2.33348e-003
243	 9.0125000000e+001	 2.22906e-003
244	 9.0187500000e+001	 3.60457e-003
245	 9.0250000000e+001	 3.02406e-003
246	 9.0312500000e+001	 2.12906e-003
247	 9.0375000000e+001	 2.97067e-003
248	 9.0437500000e+001	 4.90813e-003
249	 9.0500000000e+001	 5.37121e-003
250	 9.0562500000e+001	 5.51457e-003
251	 9.0625000000e+001	 4.93264e-003
252	 9.0687500000e+001	 5.67158e-003
253	 9.0750000000e+001	 5.61920e-003
254	 9.0812500000e+001	 5.84728e-003
255	 9.0875000000e+001	 2.81284e-003
256	 9.0937500000e+001	 4.62916e-003
257	 9.1000000000e+001	 6.58666e-003
258	 9.1062500000e+001	 3.16451e-003
259	 9.1125000000e+001	 1.57407e-003
260	 9.1187500000e+001	 4.33279e-003
261	 9.1250000000e+001	 3.98508e-003
262	 9.1312500000e+001	 2.54003e-003
263	 9.1375000000e+001	 5.28905e-003
264	 9.1437500000e+001	 4.61122e-003
265	 9.1500000000e+001	 2.34879e-003
266	 9.1562500000e+001	 2.61232e-003
267	 9.1625000000e+001	 4.95198e-003
268	 9.1687500000e+001	 6.06513e-003
269	 9.1750000000e+001	 8.60053e-003
270	 9.1812500000e+001	 5.88931e-003
271	 9.1875000000e+001	 3.06259e-003
272	 9.1937500000e+001	 4.53149e-003
273	 9.2000000000e+001	 3.19480e-003
274	 9.2062500000e+001	 1.66496e-003
275	 9.2125000000e+001	 3.31514e-003
276	 9.2187500000e+001	 2.74522e-003
277	 9.2250000000e+001	 3.55462e-003
278	 9.2312500000e+001	 6.37979e-003
279	 9.2375000000e+001	 7.19657e-003
280	 9.2437500000e+001	 3.76319e-003
281	 9.2500000000e+001	 3.76845e-003
282	 9.2562500000e+001	 3.94690e-003
283	 9.2625000000e+001	 2.97631e-003
284	 9.2687500000e+001	 3.52598e-003
285	 9.2750000000e+001	 4.40140e-003
286	 9.2812500000e+001	 5.78577e-003
287	 9.2875000000e+001	 9.95919e-003
288	 9.2937500000e+001	 1.21501e-002
289	 9.3000000000e+001	 4.30477e-003
290	 9.3062500000e+001	 1.12385e-002
291	 9.3125000000e+001	 1.45129e-002
292	 9.3187500000e+001	 7.83596e-003
293	 9.3250000000e+001	 4.53200e-003
294	 9.3312500000e+001	 5.37531e-003
295	 9.3375000000e+001	 1.09350e-002
296	 9.3437500000e+001	 6.56138e-003
297	 9.3500000000e+001	 2.43436e-003
298	 9.3562500000e+001	 4.33638e-003
299	 9.3625000000e+001	 8.26625e-003
300	 9.3687500000e+001	 8.46770e-003
301	 9.3750000000e+001	 7.32857e-003
302	 9.3812500000e+001	 8.47611e-003
303	 9.3875000000e+001	 5.66482e-003
304	 9.3937500000e+001	 4.17575e-003
305	 9.4000000000e+001	 2.67787e-003
306	 9.4062500000e+001	 1.72512e-003
307	 9.4125000000e+001	 2.64278e-003
308	 9.4187500000e+001	 2.14679e-003
309	 9.4250000000e+001	 1.96049e-003
310	 9.4312500000e+001	 3.56183e-003
311	 9.4375000000e+001	 9.28254e-003
312	 9.4437500000e+001	 8.91509e-003
313	 9.4500000000e+001	 6.11528e-003
314	 9.4562500000e+001	 7.98524e-003
315	 9.4625000000e+001	 7.12233e-003
316	 9.4687500000e+001	 4.00999e-003
317	 9.4750000000e+001	 4.34419e-003
318	 9.4812500000e+001	 6.04628e-003
319	 9.4875000000e+001	 6.06983e-003
320	 9.4937500000e+001	 4.47869e-003
321	 9.5000000000e+001	 4.42236e-003
322	 9.5062500000e+001	 8.22357e-003
323	 9.5125000000e+001	 1.21015e-002
324	 9.5187500000e+001	 7.49097e-003
325	 9.5250000000e+001	 9.57587e-003
326	 9.5312500000e+001	 8.33575e-003
327	 9.5375000000e+001	 7.62198e-003
328	 9.5437500000e+001	 1.17864e-002
329	 9.5500000000e+001	 1.40326e-002
330	 9.5562500000e+001	 8.40679e-003
331	 9.5625000000e+001	 6.27098e-003
332	 9.5687500000e+001	 7.83637e-003
333	 9.5750000000e+001	 8.00027e-003
334	 9.5812500000e+001	 5.05325e-003
335	 9.5875000000e+001	 5.61398e-003
336	 9.5937500000e+001	 7.09061e-003
337	 9.6000000000e+001	 6.39586e-003
338	 9.6062500000e+001	 5.69901e-003
339	 9.6125000000e+001	 6.17672e-003
340	 9.6187500000e+001	 1.26824e-002
341	 9.6250000000e+001	 1.33743e-002
342	 9.6312500000e+001	 7.67271e-003
343	 9.6375000000e+001	 1.14427e-002
344	 9.6437500000e+001	 1.52760e-002
345	 9.6500000000e+001	 8.60766e-003
346	 9.6562500000e+001	 7.42980e-003
347	 9.6625000000e+001	 1.07119e-002
348	 9.6687500000e+001	 1.07147e-002
349	 9.6750000000e+001	 9.37414e-003
350	 9.6812500000e+001	 1.76039e-002
351	 9.6875000000e+001	 1.67904e-002
352	 9.6937500000e+001	 1.14137e-002
353	 9.7000000000e+001	 8.87098e-003
354	 9.7062500000e+001	 1.70008e-002
355	 9.7125000000e+001	 1.74004e-002
356	 9.7187500000e+001	 2.14020e-002
357	 9.7250000000e+001	 1.63293e-002
358	 9.7312500000e+001	 1.15463e-002
359	 9.7375000000e+001	 1.15778e-002
360	 9.7437500000e+001	 5.50182e-003
361	 9.7500000000e+001	 1.42674e-002
362	 9.7562500000e+001	 1.55378e-002
363	 9.7625000000e+001	 7.61357e-003
364	 9.7687500000e+001	 6.61196e-003
365	 9.7750000000e+001	 1.39906e-002
366	 9.7812500000e+001	 1.92267e-002
367	 9.7875000000e+001	 1.74363e-002
368	 9.7937500000e+001	 1.18458e-002
369	 9.8000000000e+001	 1.39280e-002
370	 9.8062500000e+001	 9.06738e-003
371	 9.8125000000e+001	 7.85946e-003
372	 9.8187500000e+001	 1.13718e-002
373	 9.8250000000e+001	 4.74839e-003
374	 9.8312500000e+001	 1.03699e-002
375	 9.8375000000e+001	 1.46141e-002
376	 9.8437500000e+001	 9.81488e-003
377	 9.8500000000e+001	 1.32062e-002
378	 9.8562500000e+001	 1.57824e-002
379	 9.8625000000e+001	 1.17535e-002
380	 9.8687500000e+001	 1.08184e-002
381	 9.8750000000e+001	 7.22817e-003
382	 9.8812500000e+001	 1.17092e-002
383	 9.8875000000e+001	 2.32573e-002
384	 9.8937500000e+001	 2.23485e-002
385	 9.9000000000e+001	 1.50207e-002
386	 9.9062500000e+001	 1.16398e-002
387	 9.9125000000e+001	 1.58520e-002
388	 9.9187500000e+001	 1.18322e-002
389	 9.9250000000e+001	 1.98099e-002
390	 9.9312500000e+001	 1.82444e-002
391	 9.9375000000e+001	 1.06751e-002
392	 9.9437500000e+001	 8.63363e-003
393	 9.9500000000e+001	 1.35618e-002
394	 9.9562500000e+001	 9.56225e-003
395	 9.9625000000e+001	 7.49238e-003
396	 9.9687500000e+001	 1.44263e-002
397	 9.9750000000e+001	 1.88551e-002
398	 9.9812500000e+001	 1.10990e-002
399	 9.9875000000e+001	 1.14194e-002
400	 9.9937500000e+001	 1.28666e-002
401	 1.0000000000e+002	 1.51453e-002
402	 1.0006250000e+002	 1.31562e-002
403	 1.0012500000e+002	 1.48475e-002
404	 1.0018750000e+002	 1.13093e-002
405	 1.0025000000e+002	 1.27465e-002
406	 1.0031250000e+002	 1.19358e-002
407	 1.0037500000e+002	 2.35970e-002
408	 1.0043750000e+002	 3.46467e-002
409	 1.0050000000e+002	 1.95362e-002
410	 1.0056250000e+002	 1.31904e-002
411	 1.0062500000e+002	 1.81785e-002
412	 1.0068750000e+002	 2.00618e-002
413	 1.0075000000e+002	 2.74240e-002
414	 1.0081250000e+002	 3.57861e-002
415	 1.0087500000e+002	 2.36738e-002
416	 1.0093750000e+002	 2.09922e-002
417	 1.0100000000e+002	 2.11450e-002
418	 1.0106250000e+002	 2.26634e-002
419	 1.0112500000e+002	 2.52163e-002
420	 1.0118750000e+002	 2.29215e-002
421	 1.0125000000e+002	 2.13552e-002
422	 1.0131250000e+002	 1.95821e-002
423	 1.0137500000e+002	 9.20456e-003
424	 1.0143750000e+002	 1.87758e-002
425	 1.0150000000e+002	 1.46311e-002
426	 1.0156250000e+002	 9.94214e-003
427	 1.0162500000e+002	 2.89654e-002
428	 1.0168750000e+002	 3.03866e-002
429	 1.0175000000e+002	 3.42864e-002
430	 1.0181250000e+002	 4.06095e-002
431	 1.0187500000e+002	 2.78991e-002
432	 1.0193750000e+002	 2.31857e-002
433	 1.0200000000e+002	 3.41697e-002
434	 1.0206250000e+002	 3.05726e-002
435	 1.0212500000e+002	 1.31698e-002
436	 1.0218750000e+002	 1.70331e-002
437	 1.0225000000e+002	 2.19609e-002
438	 1.0231250000e+002	 1.87913e-002
439	 1.0237500000e+002	 2.32833e-002
440	 1.0243750000e+002	 2.43819e-002
441	 1.0250000000e+002	 4.66723e-002
442	 1.0256250000e+002	 6.66893e-002
443	 1.0262500000e+002	 4.83032e-002
444	 1.0268750000e+002	 4.74104e-002
445	 1.0275000000e+002	 5.79073e-002
446	 1.0281250000e+002	 5.87655e-002
447	 1.0287500000e+002	 5.79561e-002
448	 1.0293750000e+002	 4.30347e-002
449	 1.0300000000e+002	 4.30684e-002
450	 1.0306250000e+002	 3.28677e-002
451	 1.0312500000e+002	 5.02599e-002
452	 1.0318750000e+002	 9.74789e-002
453	 1.0325000000e+002	 4.08619e-002
454	 1.0331250000e+002	 2.69991e-002
455	 1.0337500000e+002	 4.20849e-002
456	 1.0343750000e+002	 5.23076e-002
457	 1.0350000000e+002	 5.89880e-002
458	 1.0356250000e+002	 8.10584e-002
459	 1.0362500000e+002	 4.83673e-002
460	 1.0368750000e+002	 3.89837e-002
461	 1.0375000000e+002	 3.93282e-002
462	 1.0381250000e+002	 3.97771e-002
463	 1.0387500000e+002	 5.11236e-002
464	 1.0393750000e+002	 4.91485e-002
465	 1.0400000000e+002	 6.13500e-002
466	 1.0406250000e+002	 5.89109e-002
467	 1.0412500000e+002	 3.33267e-002
468	 1.0418750000e+002	 7.68942e-002
469	 1.0425000000e+002	 1.09814e-001
470	 1.0431250000e+002	 8.56262e-002
471	 1.0437500000e+002	 6.09143e-002
472	 1.0443750000e+002	 3.58666e-002
473	 1.0450000000e+002	 3.56817e-002
474	 1.0456250000e+002	 4.66205e-002
475	 1.0462500000e+002	 3.79585e-002
476	 1.0468750000e+002	 7.44774e-002
477	 1.0475000000e+002	 8.15025e-002
478	 1.0481250000e+002	 5.25496e-002
479	 1.0487500000e+002	 8.76535e-002
480	 1.0493750000e+002	 1.10353e-001
481	 1.0500000000e+002	 9.92478e-002
482	 1.0506250000e+002	 6.59799e-002
483	 1.0512500000e+002	 8.16967e-002
484	 1.0518750000e+002	 6.69061e-002
485	 1.0525000000e+002	 8.57682e-002
486	 1.0531250000e+002	 8.89402e-002
487	 1.0537500000e+002	 8.43911e-002
488	 1.0543750000e+002	 1.27932e-001
489	 1.0550000000e+002	 1.32909e-001
490	 1.0556250000e+002	 7.05579e-002
491	 1.0562500000e+002	 8.00526e-002
492	 1.0568750000e+002	 8.79503e-002
493	 1.0575000000e+002	 7.11860e-002
494	 1.0581250000e+002	 4.12631e-002
495	 1.0587500000e+002	 3.20565e-002
496	 1.0593750000e+002	 6.15838e-002
497	 1.0600000000e+002	 1.36507e-001
498	 1.0606250000e+002	 1.95718e-001
499	 1.0612500000e+002	 1.62428e-001
500	 1.0618750000e+002	 9.84657e-002
501	 1.0625000000e+002	 7.27419e-002
502	 1.0631250000e+002	 8.26163e-002
503	 1.0637500000e+002	 1.77137e-001
504	 1.0643750000e+002	 1.67253e-001
505	 1.0650000000e+002	 1.37885e-001
506	 1.0656250000e+002	 2.44318e-001
507	 1.0662500000e+002	 2.35003e-001
508	 1.0668750000e+002	 2.17247e-001
509	 1.0675000000e+002	 1.63831e-001
510	 1.0681250000e+002	 1.32157e-001
511	 1.0687500000e+002	 1.81991e-001
512	 1.0693750000e+002	 3.58039e-001
513	 1.0700000000e+002	 3.95847e-001
514	 1.0706250000e+002	 4.00337e-001
515	 1.0712500000e+002	 4.81237e-001
516	 1.0718750000e+002	 3.25612e-001
517	 1.0725000000e+002	 3.07588e-001
518	 1.0731250000e+002	 3.44662e-001
519	 1.0737500000e+002	 2.57517e-001
520	 1.0743750000e+002	 2.15059e-001
521	 1.0750000000e+002	 3.17365e-001
522	 1.0756250000e+002	 4.65838e-001
523	 1.0762500000e+002	 4.22767e-001
524	 1.0768750000e+002	 4.70516e-001
525	 1.0775000000e+002	 3.57514e-001
526	 1.0781250000e+002	 2.30516e-001
527	 1.0787500000e+002	 3.97851e-001
528	 1.0793750000e+002	 5.05685e-001
529	 1.0800000000e+002	 3.63127e-001
530	 1.0806250000e+002	 2.26813e-001
531	 1.0812500000e+002	 3.13130e-001
532	 1.0818750000e+002	 2.70600e-001
533	 1.0825000000e+002	 3.02244e-001
534	 1.0831250000e+002	 4.73412e-001
535	 1.0837500000e+002	 3.30435e-001
536	 1.0843750000e+002	 1.78322e-001
537	 1.0850000000e+002	 1.26811e-001
538	 1.0856250000e+002	 1.25727e-001
539	 1.0862500000e+002	 1.24495e-001
540	 1.0868750000e+002	 1.02812e-001
541	 1.0875000000e+002	 1.43704e-001
542	 1.0881250000e+002	 1.80653e-001
543	 1.0887500000e+002	 2.28433e-001
544	 1.0893750000e+002	 1.43588e-001
545	 1.0900000000e+002	 2.07245e-001
546	 1.0906250000e+002	 1.59151e-001
547	 1.0912500000e+002	 1.44777e-001
548	 1.0918750000e+002	 2.14157e-001
549	 1.0925000000e+002	 2.32103e-001
550	 1.0931250000e+002	 2.57913e-001
551	 1.0937500000e+002	 2.34871e-001
552	 1.0943750000e+002	 1.53940e-001
553	 1.0950000000e+002	 1.82712e-001
554	 1.0956250000e+002	 2.07837e-001
555	 1.0962500000e+002	 3.02818e-001
556	 1.0968750000e+002	 2.36497e-001
557	 1.0975000000e+002	 1.34743e-001
558	 1.0981250000e+002	 1.69179e-001
559	 1.0987500000e+002	 1.44227e-001
560	 1.0993750000e+002	 2.49947e-001
561	 1.1000000000e+002	 1.89161e-001
562	 1.1006250000e+002	 1.35823e-001
563	 1.1012500000e+002	 1.83968e-001
564	 1.1018750000e+002	 3.24557e-001
565	 1.1025000000e+002	 1.51470e-001
566	 1.1031250000e+002	 2.00716e-001
567	 1.1037500000e+002	 2.58435e-001
568	 1.1043750000e+002	 1.82098e-001
569	 1.1050000000e+002	 1.47285e-001
570	 1.1056250000e+002	 1.18435e-001
571	 1.1062500000e+002	 1.70620e-001
572	 1.1068750000e+002	 1.36802e-001
573	 1.1075000000e+002	 1.49542e-001
574	 1.1081250000e+002	 1.45043e-001
575	 1.1087500000e+002	 1.93661e-001
576	 1.1093750000e+002	 2.27327e-001
577	 1.1100000000e+002	 1.09033e-001
578	 1.1106250000e+002	 1.23781e-001
579	 1.1112500000e+002	 1.62755e-001
580	 1.1118750000e+002	 7.44495e-002
581	 1.1125000000e+002	 4.26924e-002
582	 1.1131250000e+002	 8.30297e-002
583	 1.1137500000e+002	 1.00063e-001
584	 1.1143750000e+002	 6.38918e-002
585	 1.1150000000e+002	 5.86242e-002
586	 1.1156250000e+002	 8.27959e-002
587	 1.1162500000e+002	 6.97564e-002
588	 1.1168750000e+002	 6.45643e-002
589	 1.1175000000e+002	 6.27221e-002
590	 1.1181250000e+002	 8.23466e-002
591	 1.1187500000e+002	 1.06289e-001
592	 1.1193750000e+002	 1.15167e-001
593	 1.1200000000e+002	 1.25679e-001
594	 1.1206250000e+002	 1.28290e-001
595	 1.1212500000e+002	 5.41803e-002
596	 1.1218750000e+002	 6.85837e-002
597	 1.1225000000e+002	 6.45848e-002
598	 1.1231250000e+002	 6.75269e-002
599	 1.1237500000e+002	 9.19873e-002
600	 1.1243750000e+002	 1.66946e-001
601	 1.1250000000e+002	 9.46634e-002
602	 1.1256250000e+002	 8.53167e-002
603	 1.1262500000e+002	 1.76616e-001
604	 1.1268750000e+002	 1.32991e-001
605	 1.1275000000e+002	 1.10238e-001
606	 1.1281250000e+002	 1.01114e-001
607	 1.1287500000e+002	 8.01131e-002
608	 1.1293750000e+002	 5.78794e-002
609	 1.1300000000e+002	 3.23798e-002
610	 1.1306250000e+002	 4.94042e-002
611	 1.1312500000e+002	 6.93230e-002
612	 1.1318750000e+002	 9.38647e-002
613	 1.1325000000e+002	 1.54338e-001
614	 1.1331250000e+002	 1.54297e-001
615	 1.1337500000e+002	 1.05968e-001
616	 1.1343750000e+002	 1.11198e-001
617	 1.1350000000e+002	 1.15185e-001
618	 1.1356250000e+002	 6.95630e-002
619	 1.1362500000e+002	 4.28665e-002
620	 1.1368750000e+002	 5.50075e-002
621	 1.1375000000e+002	 7.53344e-002
622	 1.1381250000e+002	 4.09757e-002
623	 1.1387500000e+002	 3.22240e-002
624	 1.1393750000e+002	 4.18759e-002
625	 1.1400000000e+002	 7.13750e-002
626	 1.1406250000e+002	 5.73732e-002
627	 1.1412500000e+002	 6.20628e-002
628	 1.1418750000e+002	 9.04820e-002
629	 1.1425000000e+002	 9.40306e-002
630	 1.1431250000e+002	 6.54158e-002
631	 1.1437500000e+002	 7.99832e-002
632	 1.1443750000e+002	 7.91306e-002
633	 1.1450000000e+002	 3.76362e-002
634	 1.1456250000e+002	 3.91031e-002
635	 1.1462500000e+002	 2.77225e-002
636	 1.1468750000e+002	 4.11484e-002
637	 1.1475000000e+002	 4.27125e-002
638	 1.1481250000e+002	 2.07669e-002
639	 1.1487500000e+002	 2.94779e-002
640	 1.1493750000e+002	 3.33853e-002
641	 1.1500000000e+002	 5.02598e-002
642	 1.1506250000e+002	 3.82192e-002
643	 1.1512500000e+002	 3.18467e-002
644	 1.1518750000e+002	 2.81411e-002
645	 1.1525000000e+002	 3.14673e-002
646	 1.1531250000e+002	 2.50261e-002
647	 1.1537500000e+002	 4.53709e-002
648	 1.1543750000e+002	 3.66007e-002
649	 1.1550000000e+002	 4.27469e-002
650	 1.1556250000e+002	 5.64418e-002
651	 1.1562500000e+002	 4.97023e-002
652	 1.1568750000e+002	 4.19515e-002
653	 1.1575000000e+002	 3.90367e-002
654	 1.1581250000e+002	 2.88261e-002
655	 1.1587500000e+002	 3.64259e-002
656	 1.1593750000e+002	 2.49290e-002
657	 1.1600000000e+002	 2.71392e-002
658	 1.1606250000e+002	 4.20614e-002
659	 1.1612500000e+002	 5.04745e-002
660	 1.1618750000e+002	 3.60414e-002
661	 1.1625000000e+002	 3.83680e-002
662	 1.1631250000e+002	 3.33933e-002
663	 1.1637500000e+002	 3.20207e-002
664	 1.1643750000e+002	 4.67494e-002
665	 1.1650000000e+002	 4.66732e-002
666	 1.1656250000e+002	 3.26564e-002
667	 1.1662500000e+002	 2.92956e-002
668	 1.1668750000e+002	 2.99682e-002
669	 1.1675000000e+002	 1.94831e-002
670	 1.1681250000e+002	 1.64925e-002
671	 1.1687500000e+002	 1.76254e-002
672	 1.1693750000e+002	 2.22740e-002
673	 1.1700000000e+002	 2.67907e-002
674	 1.1706250000e+002	 4.52071e-002
675	 1.1712500000e+002	 3.33265e-002
676	 1.1718750000e+002	 1.69442e-002
677	 1.1725000000e+002	 1.74509e-002
678	 1.1731250000e+002	 3.24635e-002
679	 1.1737500000e+002	 3.51163e-002
680	 1.1743750000e+002	 2.09573e-002
681	 1.1750000000e+002	 2.22554e-002
682	 1.1756250000e+002	 2.40596e-002
683	 1.1762500000e+002	 1.87557e-002
684	 1.1768750000e+002	 2.22684e-002
685	 1.1775000000e+002	 1.73752e-002
686	 1.1781250000e+002	 2.00270e-002
687	 1.1787500000e+002	 2.45030e-002
688	 1.1793750000e+002	 2.22278e-002
689	 1.1800000000e+002	 1.21889e-002
690	 1.1806250000e+002	 8.42582e-003
691	 1.1812500000e+002	 1.76494e-002
692	 1.1818750000e+002	 4.62173e-002
693	 1.1825000000e+002	 3.13239e-002
694	 1.1831250000e+002	 2.69930e-002
695	 1.1837500000e+002	 1.80988e-002
696	 1.1843750000e+002	 1.88201e-002
697	 1.1850000000e+002	 2.38572e-002
698	 1.1856250000e+002	 1.85938e-002
699	 1.1862500000e+002	 2.12024e-002
700	 1.1868750000e+002	 3.21195e-002
701	 1.1875000000e+002	 3.69988e-002
702	 1.1881250000e+002	 2.43061e-002
703	 1.1887500000e+002	 1.99214e-002
704	 1.1893750000e+002	 2.56628e-002
705	 1.1900000000e+002	 1.87659e-002
706	 1.1906250000e+002	 1.80082e-002
707	 1.1912500000e+002	 9.16461e-003
708	 1.1918750000e+002	 1.86100e-002
709	 1.1925000000e+002	 2.51633e-002
710	 1.1931250000e+002	 2.64587e-002
711	 1.1937500000e+002	 3.10034e-002
712	 1.1943750000e+002	 2.19079e-002
713	 1.1950000000e+002	 1.29301e-002
714	 1.1956250000e+002	 1.33668e-002
715	 1.1962500000e+002	 1.48319e-002
716	 1.1968750000e+002	 2.05013e-002
717	 1.1975000000e+002	 3.67752e-002
718	 1.1981250000e+002	 2.37210e-002
719	 1.1987500000e+002	 3.54733e-002
720	 1.1993750000e+002	 2.73226e-002
721	 1.2000000000e+002	 2.84609e-002
722	 1.2006250000e+002	 3.74446e-002
723	 1.2012500000e+002	 2.26028e-002
724	 1.2018750000e+002	 6.39317e-003
725	 1.2025000000e+002	 2.06544e-002
726	 1.2031250000e+002	 3.14663e-002
727	 1.2037500000e+002	 1.27770e-002
728	 1.2043750000e+002	 1.46456e-002
729	 1.2050000000e+002	 2.51220e-002
730	 1.2056250000e+002	 3.47759e-002
731	 1.2062500000e+002	 2.46581e-002
732	 1.2068750000e+002	 1.22768e-002
733	 1.2075000000e+002	 1.71393e-002
734	 1.2081250000e+002	 3.14999e-002
735	 1.2087500000e+002	 1.70893e-002
736	 1.2093750000e+002	 2.06637e-002
737	 1.2100000000e+002	 3.24301e-002
738	 1.2106250000e+002	 2.19176e-002
739	 1.2112500000e+002	 9.53741e-003
740	 1.2118750000e+002	 1.41509e-002
741	 1.2125000000e+002	 2.28381e-002
742	 1.2131250000e+002	 1.96315e-002
743	 1.2137500000e+002	 8.35708e-003
744	 1.2143750000e+002	 2.88865e-003
745	 1.2150000000e+002	 5.23758e-003
746	 1.2156250000e+002	 6.11211e-003
747	 1.2162500000e+002	 1.00923e-002
748	 1.2168750000e+002	 1.45330e-002
749	 1.2175000000e+002	 1.27085e-002
750	 1.2181250000e+002	 2.41335e-002
751	 1.2187500000e+002	 1.90507e-002
752	 1.2193750000e+002	 1.06484e-002
753	 1.2200000000e+002	 1.39509e-002
754	 1.2206250000e+002	 1.58660e-002
755	 1.2212500000e+002	 2.45069e-002
756	 1.2218750000e+002	 1.66272e-002
757	 1.2225000000e+002	 1.38382e-002
758	 1.2231250000e+002	 1.20020e-002
759	 1.2237500000e+002	 7.43395e-003
760	 1.2243750000e+002	 1.29732e-002
761	 1.2250000000e+002	 2.34986e-002
762	 1.2256250000e+002	 1.94264e-002
763	 1.2262500000e+002	 1.68059e-002
764	 1.2268750000e+002	 1.81201e-002
765	 1.2275000000e+002	 1.50508e-002
766	 1.2281250000e+002	 8.52866e-003
767	 1.2287500000e+002	 7.52075e-003
768	 1.2293750000e+002	 8.36142e-003
769	 1.2300000000e+002	 1.03241e-002
770	 1.2306250000e+002	 1.12923e-002
771	 1.2312500000e+002	 2.05402e-002
772	 1.2318750000e+002	 2.52292e-002
773	 1.2325000000e+002	 1.64448e-002
774	 1.2331250000e+002	 8.53752e-003
775	 1.2337500000e+002	 1.10408e-002
776	 1.2343750000e+002	 5.52495e-003
777	 1.2350000000e+002	 4.67043e-003
778	 1.2356250000e+002	 9.71848e-003
779	 1.2362500000e+002	 1.07640e-002
780	 1.2368750000e+002	 1.39424e-002
781	 1.2375000000e+002	 1.23194e-002
782	 1.2381250000e+002	 1.94849e-002
783	 1.2387500000e+002	 1.67457e-002
784	 1.2393750000e+002	 1.46739e-002
785	 1.2400000000e+002	 1.28386e-002
786	 1.2406250000e+002	 9.24227e-003
787	 1.2412500000e+002	 5.06097e-003
788	 1.2418750000e+002	 1.31606e-002
789	 1.2425000000e+002	 1.46468e-002
790	 1.2431250000e+002	 2.45666e-002
791	 1.2437500000e+002	 2.06009e-002
792	 1.2443750000e+002	 1.24831e-002
793	 1.2450000000e+002	 1.89637e-002
794	 1.2456250000e+002	 2.55509e-002
795	 1.2462500000e+002	 1.99890e-002
796	 1.2468750000e+002	 1.41112e-002
797	 1.2475000000e+002	 1.68618e-002
798	 1.2481250000e+002	 1.37981e-002
799	 1.2487500000e+002	 7.54945e-003
800	 1.2493750000e+002	 8.63880e-003
801	 1.2500000000e+002	 1.10231e-002
802	 1.2506250000e+002	 1.04404e-002
803	 1.2512500000e+002	 1.06491e-002
804	 1.2518750000e+002	 1.86766e-002
805	 1.2525000000e+002	 1.84768e-002
806	 1.2531250000e+002	 1.51823e-002
807	 1.2537500000e+002	 1.37412e-002
808	 1.2543750000e+002	 1.02361e-002
809	 1.2550000000e+002	 1.15882e-002
810	 1.2556250000e+002	 1.99630e-002
811	 1.2562500000e+002	 1.92837e-002
812	 1.2568750000e+002	 1.20799e-002
813	 1.2575000000e+002	 9.69117e-003
814	 1.2581250000e+002	 6.80831e-003
815	 1.2587500000e+002	 9.04553e-003
816	 1.2593750000e+002	 1.74489e-002
817	 1.2600000000e+002	 2.05499e-002
818	 1.2606250000e+002	 1.55660e-002
819	 1.2612500000e+002	 1.15528e-002
820	 1.2618750000e+002	 1.13465e-002
821	 1.2625000000e+002	 1.52934e-002
822	 1.2631250000e+002	 1.05211e-002
823	 1.2637500000e+002	 4.89915e-003
824	 1.2643750000e+002	 8.80268e-003
825	 1.2650000000e+002	 1.13575e-002
826	 1.2656250000e+002	 1.99897e-002
827	 1.2662500000e+002	 9.33391e-003
828	 1.2668750000e+002	 5.81139e-003
829	 1.2675000000e+002	 5.47416e-003
830	 1.2681250000e+002	 1.02012e-002
831	 1.2687500000e+002	 1.46611e-002
832	 1.2693750000e+002	 1.58312e-002
833	 1.2700000000e+002	 1.33382e-002
834	 1.2706250000e+002	 1.43622e-002
835	 1.2712500000e+002	 1.45145e-002
836	 1.2718750000e+002	 1.73152e-002
837	 1.2725000000e+002	 2.76575e-002
838	 1.2731250000e+002	 1.23049e-002
839	 1.2737500000e+002	 1.24220e-002
840	 1.2743750000e+002	 1.23587e-002
841	 1.2750000000e+002	 9.36635e-003
842	 1.2756250000e+002	 7.44666e-003
843	 1.2762500000e+002	 7.17709e-003
844	 1.2768750000e+002	 7.81501e-003
845	 1.2775000000e+002	 1.12352e-002
846	 1.2781250000e+002	 8.19167e-003
847	 1.2787500000e+002	 4.49200e-003
848	 1.2793750000e+002	 6.16610e-003
849	 1.2800000000e+002	 1.37429e-002
850	 1.2806250000e+002	 8.82844e-003
851	 1.2812500000e+002	 1.07511e-002
852	 1.2818750000e+002	 1.30849e-002
853	 1.2825000000e+002	 1.75756e-002
854	 1.2831250000e+002	 1.69909e-002
855	 1.2837500000e+002	 9.30681e-003
856	 1.2843750000e+002	 8.89613e-003
857	 1.2850000000e+002	 1.10096e-002
858	 1.2856250000e+002	 1.22841e-002
859	 1.2862500000e+002	 5.97435e-003
860	 1.2868750000e+002	 3.24063e-003
861	 1.2875000000e+002	 6.41554e-003
862	 1.2881250000e+002	 1.28621e-002
863	 1.2887500000e+002	 1.79683e-002
864	 1.2893750000e+002	 1.46897e-002
865	 1.2900000000e+002	 7.38702e-003
866	 1.2906250000e+002	 3.29476e-003
867	 1.2912500000e+002	 5.96638e-003
868	 1.2918750000e+002	 1.86246e-002
869	 1.2925000000e+002	 2.19163e-002
870	 1.2931250000e+002	 1.12928e-002
871	 1.2937500000e+002	 1.06311e-002
872	 1.2943750000e+002	 9.39362e-003
873	 1.2950000000e+002	 1.00677e-002
874	 1.2956250000e+002	 1.78671e-002
875	 1.2962500000e+002	 1.67598e-002
876	 1.2968750000e+002	 7.49131e-003
877	 1.2975000000e+002	 7.50107e-003
878	 1.2981250000e+002	 9.20171e-003
879	 1.2987500000e+002	 5.34488e-003
880	 1.2993750000e+002	 8.75982e-003
881	 1.3000000000e+002	 8.14298e-003
882	 1.3006250000e+002	 9.31782e-003
883	 1.3012500000e+002	 1.12930e-002
884	 1.3018750000e+002	 1.18824e-002
885	 1.3025000000e+002	 9.15228e-003
886	 1.3031250000e+002	 9.14501e-003
887	 1.3037500000e+002	 1.52750e-002
888	 1.3043750000e+002	 1.19304e-002
889	 1.3050000000e+002	 7.59194e-003
890	 1.3056250000e+002	 5.55249e-003
891	 1.3062500000e+002	 5.84897e-003
892	 1.3068750000e+002	 4.19918e-003
893	 1.3075000000e+002	 4.07104e-003
894	 1.3081250000e+002	 6.00202e-003
895	 1.3087500000e+002	 7.67628e-003
896	 1.3093750000e+002	 1.02357e-002
897	 1.3100000000e+002	 1.30799e-002
898	 1.3106250000e+002	 8.73439e-003
899	 1.3112500000e+002	 8.97190e-003
900	 1.3118750000e+002	 5.69177e-003
901	 1.3125000000e+002	 5.92436e-003
902	 1.3131250000e+002	 6.40518e-003
903	 1.3137500000e+002	 6.34528e-003
904	 1.3143750000e+002	 6.91754e-003
905	 1.3150000000e+002	 9.67795e-003
906	 1.3156250000e+002	 1.22831e-002
907	 1.3162500000e+002	 1.27857e-002
908	 1.3168750000e+002	 9.53021e-003
909	 1.3175000000e+002	 6.08436e-003
910	 1.3181250000e+002	 7.68508e-003
911	 1.3187500000e+002	 5.16593e-003
912	 1.3193750000e+002	 5.51574e-003
913	 1.3200000000e+002	 1.44099e-002
914	 1.3206250000e+002	 1.35926e-002
915	 1.3212500000e+002	 1.40920e-002
916	 1.3218750000e+002	 1.87188e-002
917	 1.3225000000e+002	 1.05200e-002
918	 1.3231250000e+002	 1.05400e-002
919	 1.3237500000e+002	 1.17355e-002
920	 1.3243750000e+002	 1.77212e-002
921	 1.3250000000e+002	 1.70822e-002
922	 1.3256250000e+002	 4.90004e-003
923	 1.3262500000e+002	 2.48855e-003
924	 1.3268750000e+002	 3.86354e-003
925	 1.3275000000e+002	 7.79315e-003
926	 1.3281250000e+002	 7.94468e-003
927	 1.3287500000e+002	 9.62549e-003
928	 1.3293750000e+002	 1.36231e-002
929	 1.3300000000e+002	 9.71735e-003
930	 1.3306250000e+002	 6.97991e-003
931	 1.3312500000e+002	 1.38190e-002
932	 1.3318750000e+002	 1.30896e-002
933	 1.3325000000e+002	 1.57077e-002
934	 1.3331250000e+002	 9.20544e-003
935	 1.3337500000e+002	 8.09374e-003
936	 1.3343750000e+002	 9.85545e-003
937	 1.3350000000e+002	 6.57870e-003
938	 1.3356250000e+002	 9.56959e-003
939	 1.3362500000e+002	 9.07806e-003
940	 1.3368750000e+002	 1.12064e-002
941	 1.3375000000e+002	 1.77291e-002
942	 1.3381250000e+002	 2.12064e-002
943	 1.3387500000e+002	 1.48831e-002
944	 1.3393750000e+002	 7.23866e-003
945	 1.3400000000e+002	 6.08069e-003
946	 1.3406250000e+002	 7.42357e-003
947	 1.3412500000e+002	 1.15505e-002
948	 1.3418750000e+002	 8.71560e-003
949	 1.3425000000e+002	 1.63450e-002
950	 1.3431250000e+002	 1.37754e-002
951	 1.3437500000e+002	 1.84620e-002
952	 1.3443750000e+002	 2.32516e-002
953	 1.3450000000e+002	 8.82846e-003
954	 1.3456250000e+002	 5.94964e-003
955	 1.3462500000e+002	 1.14850e-002
956	 1.3468750000e+002	 2.04318e-002
957	 1.3475000000e+002	 1.39588e-002
958	 1.3481250000e+002	 7.49286e-003
959	 1.3487500000e+002	 9.62499e-003
960	 1.3493750000e+002	 1.03659e-002
961	 1.3500000000e+002	 9.82050e-003
962	 1.3506250000e+002	 8.15568e-003
963	 1.3512500000e+002	 1.20437e-002
964	 1.3518750000e+002	 1.02134e-002
965	 1.3525000000e+002	 8.75133e-003
966	 1.3531250000e+002	 9.72329e-003
967	 1.3537500000e+002	 1.43097e-002
968	 1.3543750000e+002	 2.65361e-002
969	 1.3550000000e+002	 1.43688e-002
970	 1.3556250000e+002	 7.62865e-003
971	 1.3562500000e+002	 6.91263e-003
972	 1.3568750000e+002	 1.19398e-002
973	 1.3575000000e+002	 1.13690e-002
974	 1.3581250000e+002	 1.16133e-002
975	 1.3587500000e+002	 1.14588e-002
976	 1.3593750000e+002	 6.55986e-003
977	 1.3600000000e+002	 6.27002e-003
978	 1.3606250000e+002	 7.12550e-003
979	 1.3612500000e+002	 1.13923e-002
980	 1.3618750000e+002	 1.98053e-002
981	 1.3625000000e+002	 1.55043e-002
982	 1.3631250000e+002	 6.66541e-003
983	 1.3637500000e+002	 6.68608e-003
984	 1.3643750000e+002	 1.23968e-002
985	 1.3650000000e+002	 1.14102e-002
986	 1.3656250000e+002	 9.37090e-003
987	 1.3662500000e+002	 7.59691e-003
988	 1.3668750000e+002	 8.76668e-003
989	 1.3675000000e+002	 9.38977e-003
990	 1.3681250000e+002	 7.90416e-003
991	 1.3687500000e+002	 1.32830e-002
992	 1.3693750000e+002	 1.55450e-002
993	 1.3700000000e+002	 2.25863e-002
994	 1.3706250000e+002	 1.65652e-002
995	 1.3712500000e+002	 2.03267e-002
996	 1.3718750000e+002	 1.35900e-002
997	 1.3725000000e+002	 9.54923e-003
998	 1.3731250000e+002	 1.72206e-002
999	 1.3737500000e+002	 2.16041e-002
1000	 1.3743750000e+002	 1.13421e-002
1001	 1.3750000000e+002	 9.80368e-003
1002	 1.3756250000e+002	 1.29207e-002
1003	 1.3762500000e+002	 1.99354e-002
1004	 1.3768750000e+002	 2.53686e-002
1005	 1.3775000000e+002	 1.77911e-002
1006	 1.3781250000e+002	 1.09486e-002
1007	 1.3787500000e+002	 1.58996e-002
1008	 1.3793750000e+002	 1.06784e-002
1009	 1.3800000000e+002	 1.02405e-002
1010	 1.3806250000e+002	 1.88877e-002
1011	 1.3812500000e+002	 2.55831e-002
1012	 1.3818750000e+002	 2.60191e-002
1013	 1.3825000000e+002	 1.51129e-002
1014	 1.3831250000e+002	 7.44154e-003
1015	 1.3837500000e+002	 5.87161e-003
1016	 1.3843750000e+002	 1.03609e-002
1017	 1.3850000000e+002	 2.28908e-002
1018	 1.3856250000e+002	 1.94845e-002
1019	 1.3862500000e+002	 2.19905e-002
1020	 1.3868750000e+002	 2.48606e-002
1021	 1.3875000000e+002	 1.82663e-002
1022	 1.3881250000e+002	 1.76565e-002
1023	 1.3887500000e+002	 2.00447e-002
1024	 1.3893750000e+002	 1.60921e-002
1025	 1.3900000000e+002	 2.88321e-002
1026	 1.3906250000e+002	 3.58408e-002
1027	 1.3912500000e+002	 1.26923e-002
1028	 1.3918750000e+002	 1.62965e-002
1029	 1.3925000000e+002	 3.43256e-002
1030	 1.3931250000e+002	 4.02653e-002
1031	 1.3937500000e+002	 2.65529e-002
1032	 1.3943750000e+002	 2.39052e-002
1033	 1.3950000000e+002	 1.56912e-002
1034	 1.3956250000e+002	 1.08287e-002
1035	 1.3962500000e+002	 5.63328e-003
1036	 1.3968750000e+002	 1.26761e-002
1037	 1.3975000000e+002	 1.80907e-002
1038	 1.3981250000e+002	 1.04596e-002
1039	 1.3987500000e+002	 9.96321e-003
1040	 1.3993750000e+002	 1.14366e-002
1041	 1.4000000000e+002	 1.92293e-002
1042	 1.4006250000e+002	 2.30805e-002
1043	 1.4012500000e+002	 1.74623e-002
1044	 1.4018750000e+002	 1.19976e-002
1045	 1.4025000000e+002	 1.31324e-002
1046	 1.4031250000e+002	 2.08296e-002
1047	 1.4037500000e+002	 2.50024e-002
1048	 1.4043750000e+002	 1.17371e-002
1049	 1.4050000000e+002	 9.50797e-003
1050	 1.4056250000e+002	 1.20868e-002
1051	 1.4062500000e+002	 2.48016e-002
1052	 1.4068750000e+002	 2.55401e-002
1053	 1.4075000000e+002	 3.00201e-002
1054	 1.4081250000e+002	 2.81497e-002
1055	 1.4087500000e+002	 1.98883e-002
1056	 1.4093750000e+002	 1.67729e-002
1057	 1.4100000000e+002	 1.69251e-002
1058	 1.4106250000e+002	 1.82583e-002
1059	 1.4112500000e+002	 9.53875e-003
1060	 1.4118750000e+002	 8.25447e-003
1061	 1.4125000000e+002	 1.01404e-002
1062	 1.4131250000e+002	 1.29771e-002
1063	 1.4137500000e+002	 1.56806e-002
1064	 1.4143750000e+002	 1.33954e-002
1065	 1.4150000000e+002	 1.17955e-002
1066	 1.4156250000e+002	 1.45585e-002
1067	 1.4162500000e+002	 1.56482e-002
1068	 1.4168750000e+002	 1.85652e-002
1069	 1.4175000000e+002	 1.32964e-002
1070	 1.4181250000e+002	 1.84968e-002
1071	 1.4187500000e+002	 3.47233e-002
1072	 1.4193750000e+002	 2.46034e-002
1073	 1.4200000000e+002	 1.33253e-002
1074	 1.4206250000e+002	 1.36683e-002
1075	 1.4212500000e+002	 2.35476e-002
1076	 1.4218750000e+002	 1.69328e-002
1077	 1.4225000000e+002	 1.52562e-002
1078	 1.4231250000e+002	 1.39968e-002
1079	 1.4237500000e+002	 1.55316e-002
1080	 1.4243750000e+002	 7.12317e-003
1081	 1.4250000000e+002	 2.12435e-002
1082	 1.4256250000e+002	 3.48138e-002
1083	 1.4262500000e+002	 1.23720e-002
1084	 1.4268750000e+002	 8.44761e-003
1085	 1.4275000000e+002	 7.19116e-003
1086	 1.4281250000e+002	 4.82132e-003
1087	 1.4287500000e+002	 9.35534e-003
1088	 1.4293750000e+002	 1.80629e-002
1089	 1.4300000000e+002	 2.39176e-002
1090	 1.4306250000e+002	 2.52451e-002
1091	 1.4312500000e+002	 1.88757e-002
1092	 1.4318750000e+002	 1.36048e-002
1093	 1.4325000000e+002	 1.77496e-002
1094	 1.4331250000e+002	 3.06277e-002
1095	 1.4337500000e+002	 1.71690e-002
1096	 1.4343750000e+002	 1.17047e-002
1097	 1.4350000000e+002	 2.27878e-002
1098	 1.4356250000e+002	 2.37057e-002
1099	 1.4362500000e+002	 2.85786e-002
1100	 1.4368750000e+002	 2.04411e-002
1101	 1.4375000000e+002	 2.32299e-002
1102	 1.4381250000e+002	 2.06291e-002
1103	 1.4387500000e+002	 3.12903e-002
1104	 1.4393750000e+002	 3.86005e-002
1105	 1.4400000000e+002	 3.52863e-002
1106	 1.4406250000e+002	 2.27301e-002
1107	 1.4412500000e+002	 1.89440e-002
1108	 1.4418750000e+002	 2.03932e-002
1109	 1.4425000000e+002	 1.19259e-002
1110	 1.4431250000e+002	 1.91379e-002
1111	 1.4437500000e+002	 2.12102e-002
1112	 1.4443750000e+002	 1.14996e-002
1113	 1.4450000000e+002	 7.32892e-003
1114	 1.4456250000e+002	 1.05079e-002
1115	 1.4462500000e+002	 1.98137e-002
1116	 1.4468750000e+002	 1.28046e-002
1117	 1.4475000000e+002	 2.02096e-002
1118	 1.4481250000e+002	 2.42775e-002
1119	 1.4487500000e+002	 1.45455e-002
1120	 1.4493750000e+002	 1.61068e-002
1121	 1.4500000000e+002	 1.43925e-002
1122	 1.4506250000e+002	 1.17362e-002
1123	 1.4512500000e+002	 2.33935e-002
1124	 1.4518750000e+002	 2.40483e-002
1125	 1.4525000000e+002	 1.88519e-002
1126	 1.4531250000e+002	 1.36817e-002
1127	 1.4537500000e+002	 6.64423e-003
1128	 1.4543750000e+002	 1.31462e-002
1129	 1.4550000000e+002	 2.99882e-002
1130	 1.4556250000e+002	 5.18480e-002
1131	 1.4562500000e+002	 4.65373e-002
1132	 1.4568750000e+002	 3.28734e-002
1133	 1.4575000000e+002	 2.90074e-002
1134	 1.4581250000e+002	 5.73701e-002
1135	 1.4587500000e+002	 4.36005e-002
1136	 1.4593750000e+002	 3.28955e-002
1137	 1.4600000000e+002	 3.69204e-002
1138	 1.4606250000e+002	 2.25436e-002
1139	 1.4612500000e+002	 2.35976e-002
1140	 1.4618750000e+002	 1.91060e-002
1141	 1.4625000000e+002	 2.05870e-002
1142	 1.4631250000e+002	 4.13141e-002
1143	 1.4637500000e+002	 3.64627e-002
1144	 1.4643750000e+002	 2.66043e-002
1145	 1.4650000000e+002	 5.63643e-002
1146	 1.4656250000e+002	 6.84866e-002
1147	 1.4662500000e+002	 4.69067e-002
1148	 1.4668750000e+002	 2.27546e-002
1149	 1.4675000000e+002	 2.86394e-002
1150	 1.4681250000e+002	 3.05136e-002
1151	 1.4687500000e+002	 4.15404e-002
1152	 1.4693750000e+002	 3.15813e-002
1153	 1.4700000000e+002	 1.75584e-002
1154	 1.4706250000e+002	 3.44544e-002
1155	 1.4712500000e+002	 2.74108e-002
1156	 1.4718750000e+002	 2.02655e-002
1157	 1.4725000000e+002	 3.04074e-002
1158	 1.4731250000e+002	 3.56963e-002
1159	 1.4737500000e+002	 3.41463e-002
1160	 1.4743750000e+002	 4.12903e-002
1161	 1.4750000000e+002	 6.15729e-002
1162	 1.4756250000e+002	 4.77353e-002
1163	 1.4762500000e+002	 8.24070e-002
1164	 1.4768750000e+002	 6.54745e-002
1165	 1.4775000000e+002	 2.86107e-002
1166	 1.4781250000e+002	 2.17596e-002
1167	 1.4787500000e+002	 2.99184e-002
1168	 1.4793750000e+002	 3.51171e-002
1169	 1.4800000000e+002	 1.79925e-002
1170	 1.4806250000e+002	 4.19647e-002
1171	 1.4812500000e+002	 3.05034e-002
1172	 1.4818750000e+002	 2.59782e-002
1173	 1.4825000000e+002	 3.84975e-002
1174	 1.4831250000e+002	 2.41216e-002
1175	 1.4837500000e+002	 2.11087e-002
1176	 1.4843750000e+002	 2.58654e-002
1177	 1.4850000000e+002	 2.39478e-002
1178	 1.4856250000e+002	 3.20116e-002
1179	 1.4862500000e+002	 3.02985e-002
1180	 1.4868750000e+002	 1.24024e-002
1181	 1.4875000000e+002	 2.56979e-002
1182	 1.4881250000e+002	 3.06093e-002
1183	 1.4887500000e+002	 4.88871e-002
1184	 1.4893750000e+002	 7.40662e-002
1185	 1.4900000000e+002	 6.95206e-002
1186	 1.4906250000e+002	 5.20720e-002
1187	 1.4912500000e+002	 5.37107e-002
1188	 1.4918750000e+002	 5.03215e-002
1189	 1.4925000000e+002	 4.01549e-002
1190	 1.4931250000e+002	 5.64134e-002
1191	 1.4937500000e+002	 5.59225e-002
1192	 1.4943750000e+002	 5.18202e-002
1193	 1.4950000000e+002	 4.71225e-002
1194	 1.4956250000e+002	 5.05551e-002
1195	 1.4962500000e+002	 4.08168e-002
1196	 1.4968750000e+002	 2.61363e-002
1197	 1.4975000000e+002	 2.56322e-002
1198	 1.4981250000e+002	 6.22343e-002
1199	 1.4987500000e+002	 5.24495e-002
1200	 1.4993750000e+002	 2.49173e-002
1201	 1.5000000000e+002	 3.48455e-002
1202	 1.5006250000e+002	 3.92536e-002
1203	 1.5012500000e+002	 3.08236e-002
1204	 1.5018750000e+002	 2.20017e-002
1205	 1.5025000000e+002	 4.36349e-002
1206	 1.5031250000e+002	 3.17184e-002
1207	 1.5037500000e+002	 2.04226e-002
1208	 1.5043750000e+002	 3.51192e-002
1209	 1.5050000000e+002	 6.75814e-002
1210	 1.5056250000e+002	 6.15164e-002
1211	 1.5062500000e+002	 5.56801e-002
1212	 1.5068750000e+002	 4.40473e-002
1213	 1.5075000000e+002	 4.90549e-002
1214	 1.5081250000e+002	 5.87643e-002
1215	 1.5087500000e+002	 8.46102e-002
1216	 1.5093750000e+002	 7.87318e-002
1217	 1.5100000000e+002	 6.02599e-002
1218	 1.5106250000e+002	 8.28290e-002
1219	 1.5112500000e+002	 6.93583e-002
1220	 1.5118750000e+002	 5.53168e-002
1221	 1.5125000000e+002	 3.65169e-002
1222	 1.5131250000e+002	 5.30382e-002
1223	 1.5137500000e+002	 6.16033e-002
1224	 1.5143750000e+002	 5.09966e-002
1225	 1.5150000000e+002	 6.72336e-002
1226	 1.5156250000e+002	 8.15960e-002
1227	 1.5162500000e+002	 6.58876e-002
1228	 1.5168750000e+002	 9.15349e-002
1229	 1.5175000000e+002	 6.95726e-002
1230	 1.5181250000e+002	 8.37793e-002
1231	 1.5187500000e+002	 4.98227e-002
1232	 1.5193750000e+002	 4.11433e-002
1233	 1.5200000000e+002	 3.52822e-002
1234	 1.5206250000e+002	 4.09520e-002
1235	 1.5212500000e+002	 5.84989e-002
1236	 1.5218750000e+002	 6.88153e-002
1237	 1.5225000000e+002	 8.81002e-002
1238	 1.5231250000e+002	 6.73148e-002
1239	 1.5237500000e+002	 6.08513e-002
1240	 1.5243750000e+002	 4.91299e-002
1241	 1.5250000000e+002	 5.30888e-002
1242	 1.5256250000e+002	 3.94854e-002
1243	 1.5262500000e+002	 4.90634e-002
1244	 1.5268750000e+002	 4.09832e-002
1245	 1.5275000000e+002	 6.72217e-002
1246	 1.5281250000e+002	 9.78441e-002
1247	 1.5287500000e+002	 1.42565e-001
1248	 1.5293750000e+002	 1.32153e-001
1249	 1.5300000000e+002	 1.48052e-001
1250	 1.5306250000e+002	 9.78727e-002
1251	 1.5312500000e+002	 6.42681e-002
1252	 1.5318750000e+002	 7.21099e-002
1253	 1.5325000000e+002	 7.68483e-002
1254	 1.5331250000e+002	 1.16453e-001
1255	 1.5337500000e+002	 8.91174e-002
1256	 1.5343750000e+002	 6.98649e-002
1257	 1.5350000000e+002	 3.64335e-002
1258	 1.5356250000e+002	 4.80397e-002
1259	 1.5362500000e+002	 7.86363e-002
1260	 1.5368750000e+002	 3.59848e-002
1261	 1.5375000000e+002	 7.18686e-002
1262	 1.5381250000e+002	 1.19220e-001
1263	 1.5387500000e+002	 1.49735e-001
1264	 1.5393750000e+002	 1.50698e-001
1265	 1.5400000000e+002	 1.18154e-001
1266	 1.5406250000e+002	 7.86601e-002
1267	 1.5412500000e+002	 6.55745e-002
1268	 1.5418750000e+002	 4.17491e-002
1269	 1.5425000000e+002	 7.32134e-002
1270	 1.5431250000e+002	 1.17878e-001
1271	 1.5437500000e+002	 1.63523e-001
1272	 1.5443750000e+002	 2.23183e-001
1273	 1.5450000000e+002	 1.10053e-001
1274	 1.5456250000e+002	 1.32986e-001
1275	 1.5462500000e+002	 2.04304e-001
1276	 1.5468750000e+002	 1.09719e-001
1277	 1.5475000000e+002	 4.42431e-002
1278	 1.5481250000e+002	 6.81384e-002
1279	 1.5487500000e+002	 9.80734e-002
1280	 1.5493750000e+002	 1.12311e-001
1281	 1.5500000000e+002	 1.48592e-001
1282	 1.5506250000e+002	 1.84206e-001
1283	 1.5512500000e+002	 1.98659e-001
1284	 1.5518750000e+002	 2.55258e-001
1285	 1.5525000000e+002	 1.74033e-001
1286	 1.5531250000e+002	 1.94156e-001
1287	 1.5537500000e+002	 3.98085e-001
1288	 1.5543750000e+002	 3.75291e-001
1289	 1.5550000000e+002	 2.62437e-001
1290	 1.5556250000e+002	 4.17255e-001
1291	 1.5562500000e+002	 2.97445e-001
1292	 1.5568750000e+002	 2.35066e-001
1293	 1.5575000000e+002	 2.38161e-001
1294	 1.5581250000e+002	 4.48204e-001
1295	 1.5587500000e+002	 3.09079e-001
1296	 1.5593750000e+002	 7.62831e-002
1297	 1.5600000000e+002	 9.70998e-002
1298	 1.5606250000e+002	 1.98096e-001
1299	 1.5612500000e+002	 2.81239e-001
1300	 1.5618750000e+002	 2.62786e-001
1301	 1.5625000000e+002	 2.04547e-001
1302	 1.5631250000e+002	 1.37964e-001
1303	 1.5637500000e+002	 2.40657e-001
1304	 1.5643750000e+002	 1.93945e-001
1305	 1.5650000000e+002	 6.34000e-002
1306	 1.5656250000e+002	 4.61745e-002
1307	 1.5662500000e+002	 1.31266e-001
1308	 1.5668750000e+002	 2.19641e-001
1309	 1.5675000000e+002	 2.81732e-001
1310	 1.5681250000e+002	 2.28952e-001
1311	 1.5687500000e+002	 1.70774e-001
1312	 1.5693750000e+002	 2.58255e-001
1313	 1.5700000000e+002	 3.67624e-001
1314	 1.5706250000e+002	 1.84013e-001
1315	 1.5712500000e+002	 1.45600e-001
1316	 1.5718750000e+002	 1.71950e-001
1317	 1.5725000000e+002	 1.39311e-001
1318	 1.5731250000e+002	 1.21439e-001
1319	 1.5737500000e+002	 1.17063e-001
1320	 1.5743750000e+002	 1.75609e-001
1321	 1.5750000000e+002	 2.63882e-001
1322	 1.5756250000e+002	 3.14532e-001
1323	 1.5762500000e+002	 2.96145e-001
1324	 1.5768750000e+002	 2.51364e-001
1325	 1.5775000000e+002	 2.28003e-001
1326	 1.5781250000e+002	 2.69007e-001
1327	 1.5787500000e+002	 3.38473e-001
1328	 1.5793750000e+002	 3.93139e-001
1329	 1.5800000000e+002	 3.04366e-001
1330	 1.5806250000e+002	 1.82305e-001
1331	 1.5812500000e+002	 1.95485e-001
1332	 1.5818750000e+002	 3.59688e-001
1333	 1.5825000000e+002	 3.17865e-001
1334	 1.5831250000e+002	 4.16531e-001
1335	 1.5837500000e+002	 3.92072e-001
1336	 1.5843750000e+002	 2.02369e-001
1337	 1.5850000000e+002	 3.30096e-001
1338	 1.5856250000e+002	 3.61307e-001
1339	 1.5862500000e+002	 1.75307e-001
1340	 1.5868750000e+002	 2.58046e-001
1341	 1.5875000000e+002	 4.57144e-001
1342	 1.5881250000e+002	 5.73835e-001
1343	 1.5887500000e+002	 4.76475e-001
1344	 1.5893750000e+002	 4.30973e-001
1345	 1.5900000000e+002	 6.85731e-001
1346	 1.5906250000e+002	 8.72714e-001
1347	 1.5912500000e+002	 5.99816e-001
1348	 1.5918750000e+002	 4.35797e-001
1349	 1.5925000000e+002	 4.12369e-001
1350	 1.5931250000e+002	 6.02706e-001
1351	 1.5937500000e+002	 4.67707e-001
1352	 1.5943750000e+002	 6.27018e-001
1353	 1.5950000000e+002	 4.29175e-001
1354	 1.5956250000e+002	 2.26827e-001
1355	 1.5962500000e+002	 4.20485e-001
1356	 1.5968750000e+002	 8.09568e-001
1357	 1.5975000000e+002	 4.83842e-001
1358	 1.5981250000e+002	 1.57752e-001
1359	 1.5987500000e+002	 1.72385e-001
1360	 1.5993750000e+002	 2.43506e-001
1361	 1.6000000000e+002	 3.43228e-001
1362	 1.6006250000e+002	 5.42209e-001
1363	 1.6012500000e+002	 1.26505e+000
1364	 1.6018750000e+002	 1.32792e+000
1365	 1.6025000000e+002	 7.91650e-001
1366	 1.6031250000e+002	 9.55395e-001
1367	 1.6037500000e+002	 1.21712e+000
1368	 1.6043750000e+002	 6.48715e-001
1369	 1.6050000000e+002	 5.77932e-001
1370	 1.6056250000e+002	 6.15047e-001
1371	 1.6062500000e+002	 5.68818e-001
1372	 1.6068750000e+002	 4.69193e-001
1373	 1.6075000000e+002	 4.88705e-001
1374	 1.6081250000e+002	 8.88980e-001
1375	 1.6087500000e+002	 9.36820e-001
1376	 1.6093750000e+002	 9.73979e-001
1377	 1.6100000000e+002	 1.07701e+000
1378	 1.6106250000e+002	 4.51058e-001
1379	 1.6112500000e+002	 6.63581e-001
1380	 1.6118750000e+002	 8.46278e-001
1381	 1.6125000000e+002	 4.25111e-001
1382	 1.6131250000e+002	 3.05785e-001
1383	 1.6137500000e+002	 7.72871e-001
1384	 1.6143750000e+002	 1.56923e+000
1385	 1.6150000000e+002	 1.24571e+000
1386	 1.6156250000e+002	 5.21708e-001
1387	 1.6162500000e+002	 5.77614e-001
1388	 1.6168750000e+002	 6.72050e-001
1389	 1.6175000000e+002	 3.99334e-001
1390	 1.6181250000e+002	 3.34261e-001
1391	 1.6187500000e+002	 7.39416e-001
1392	 1.6193750000e+002	 1.11198e+000
1393	 1.6200000000e+002	 8.80804e-001
1394	 1.6206250000e+002	 4.06041e-001
1395	 1.6212500000e+002	 6.49592e-001
1396	 1.6218750000e+002	 6.00456e-001
1397	 1.6225000000e+002	 1.13129e+000
1398	 1.6231250000e+002	 1.34464e+000
1399	 1.6237500000e+002	 8.65390e-001
1400	 1.6243750000e+002	 5.62768e-001
1401	 1.6250000000e+002	 4.36418e-001
1402	 1.6256250000e+002	 8.08621e-001
1403	 1.6262500000e+002	 9.72311e-001
1404	 1.6268750000e+002	 4.99286e-001
1405	 1.6275000000e+002	 3.79669e-001
1406	 1.6281250000e+002	 3.37570e-001
1407	 1.6287500000e+002	 1.90857e-001
1408	 1.6293750000e+002	 4.21201e-001
1409	 1.6300000000e+002	 7.19846e-001
1410	 1.6306250000e+002	 7.05303e-001
1411	 1.6312500000e+002	 6.21744e-001
1412	 1.6318750000e+002	 9.59388e-001
1413	 1.6325000000e+002	 4.51164e-001
1414	 1.6331250000e+002	 5.36464e-001
1415	 1.6337500000e+002	 6.73449e-001
1416	 1.6343750000e+002	 5.99549e-001
1417	 1.6350000000e+002	 3.84135e-001
1418	 1.6356250000e+002	 2.07326e-001
1419	 1.6362500000e+002	 2.45627e-001
1420	 1.6368750000e+002	 4.31976e-001
1421	 1.6375000000e+002	 6.09647e-001
1422	 1.6381250000e+002	 7.70138e-001
1423	 1.6387500000e+002	 5.09489e-001
1424	 1.6393750000e+002	 3.44869e-001
1425	 1.6400000000e+002	 5.91383e-001
1426	 1.6406250000e+002	 7.16271e-001
1427	 1.6412500000e+002	 5.77145e-001
1428	 1.6418750000e+002	 3.06575e-001
1429	 1.6425000000e+002	 3.99589e-001
1430	 1.6431250000e+002	 4.92380e-001
1431	 1.6437500000e+002	 3.09367e-001
1432	 1.6443750000e+002	 2.52267e-001
1433	 1.6450000000e+002	 2.87196e-001
1434	 1.6456250000e+002	 2.93581e-001
1435	 1.6462500000e+002	 5.46152e-001
1436	 1.6468750000e+002	 5.07344e-001
1437	 1.6475000000e+002	 2.84319e-001
1438	 1.6481250000e+002	 2.52688e-001
1439	 1.6487500000e+002	 2.59446e-001
1440	 1.6493750000e+002	 2.37011e-001
1441	 1.6500000000e+002	 2.20807e-001
1442	 1.6506250000e+002	 3.20980e-001
1443	 1.6512500000e+002	 3.64319e-001
1444	 1.6518750000e+002	 2.79131e-001
1445	 1.6525000000e+002	 2.44160e-001
1446	 1.6531250000e+002	 3.35853e-001
1447	 1.6537500000e+002	 5.19836e-001
1448	 1.6543750000e+002	 4.68358e-001
1449	 1.6550000000e+002	 2.69373e-001
1450	 1.6556250000e+002	 1.40867e-001
1451	 1.6562500000e+002	 1.78301e-001
1452	 1.6568750000e+002	 1.25738e-001
1453	 1.6575000000e+002	 8.54035e-002
1454	 1.6581250000e+002	 1.17503e-001
1455	 1.6587500000e+002	 1.72246e-001
1456	 1.6593750000e+002	 8.11524e-002
1457	 1.6600000000e+002	 1.22941e-001
1458	 1.6606250000e+002	 1.56433e-001
1459	 1.6612500000e+002	 2.34274e-001
1460	 1.6618750000e+002	 1.69604e-001
1461	 1.6625000000e+002	 2.83327e-001
1462	 1.6631250000e+002	 4.26284e-001
1463	 1.6637500000e+002	 2.25656e-001
1464	 1.6643750000e+002	 2.11927e-001
1465	 1.6650000000e+002	 1.42658e-001
1466	 1.6656250000e+002	 1.11834e-001
1467	 1.6662500000e+002	 1.48926e-001
1468	 1.6668750000e+002	 1.50350e-001
1469	 1.6675000000e+002	 1.64474e-001
1470	 1.6681250000e+002	 1.58521e-001
1471	 1.6687500000e+002	 1.77502e-001
1472	 1.6693750000e+002	 1.27478e-001
1473	 1.6700000000e+002	 1.64393e-001
1474	 1.6706250000e+002	 1.43331e-001
1475	 1.6712500000e+002	 1.45506e-001
1476	 1.6718750000e+002	 1.65556e-001
1477	 1.6725000000e+002	 1.35018e-001
1478	 1.6731250000e+002	 1.37847e-001
1479	 1.6737500000e+002	 1.32846e-001
1480	 1.6743750000e+002	 1.02727e-001
1481	 1.6750000000e+002	 1.51574e-001
1482	 1.6756250000e+002	 1.12814e-001
1483	 1.6762500000e+002	 5.92688e-002
1484	 1.6768750000e+002	 7.77194e-002
1485	 1.6775000000e+002	 1.19742e-001
1486	 1.6781250000e+002	 1.09100e-001
1487	 1.6787500000e+002	 1.18163e-001
1488	 1.6793750000e+002	 1.38568e-001
1489	 1.6800000000e+002	 1.19855e-001
1490	 1.6806250000e+002	 1.61725e-001
1491	 1.6812500000e+002	 1.48456e-001
1492	 1.6818750000e+002	 1.79967e-001
1493	 1.6825000000e+002	 1.71720e-001
1494	 1.6831250000e+002	 1.04532e-001
1495	 1.6837500000e+002	 1.12396e-001
1496	 1.6843750000e+002	 1.28710e-001
1497	 1.6850000000e+002	 1.95335e-001
1498	 1.6856250000e+002	 1.25834e-001
1499	 1.6862500000e+002	 1.51356e-001
1500	 1.6868750000e+002	 1.03893e-001
1501	 1.6875000000e+002	 8.58975e-002
1502	 1.6881250000e+002	 1.05302e-001
1503	 1.6887500000e+002	 1.31545e-001
1504	 1.6893750000e+002	 1.85918e-001
1505	 1.6900000000e+002	 1.16807e-001
1506	 1.6906250000e+002	 8.33010e-002
1507	 1.6912500000e+002	 1.03866e-001
1508	 1.6918750000e+002	 1.02717e-001
1509	 1.6925000000e+002	 1.84509e-001
1510	 1.6931250000e+002	 2.50085e-001
1511	 1.6937500000e+002	 1.48859e-001
1512	 1.6943750000e+002	 7.08474e-002
1513	 1.6950000000e+002	 1.10100e-001
1514	 1.6956250000e+002	 1.30069e-001
1515	 1.6962500000e+002	 1.23364e-001
1516	 1.6968750000e+002	 7.57081e-002
1517	 1.6975000000e+002	 8.50611e-002
1518	 1.6981250000e+002	 1.51416e-001
1519	 1.6987500000e+002	 2.77994e-001
1520	 1.6993750000e+002	 1.74638e-001
1521	 1.7000000000e+002	 1.00307e-001
1522	 1.7006250000e+002	 6.20514e-002
1523	 1.7012500000e+002	 8.17803e-002
1524	 1.7018750000e+002	 7.05017e-002
1525	 1.7025000000e+002	 6.10003e-002
1526	 1.7031250000e+002	 4.17357e-002
1527	 1.7037500000e+002	 3.29408e-002
1528	 1.7043750000e+002	 5.72022e-002
1529	 1.7050000000e+002	 7.98149e-002
1530	 1.7056250000e+002	 8.15068e-002
1531	 1.7062500000e+002	 1.18656e-001
1532	 1.7068750000e+002	 8.50194e-002
1533	 1.7075000000e+002	 6.00731e-002
1534	 1.7081250000e+002	 4.41579e-002
1535	 1.7087500000e+002	 3.60102e-002
1536	 1.7093750000e+002	 5.12695e-002
1537	 1.7100000000e+002	 4.17152e-002
1538	 1.7106250000e+002	 4.88926e-002
1539	 1.7112500000e+002	 9.10807e-002
1540	 1.7118750000e+002	 1.27918e-001
1541	 1.7125000000e+002	 1.25275e-001
1542	 1.7131250000e+002	 6.97521e-002
1543	 1.7137500000e+002	 7.03232e-002
1544	 1.7143750000e+002	 6.66575e-002
1545	 1.7150000000e+002	 2.80236e-002
1546	 1.7156250000e+002	 3.02583e-002
1547	 1.7162500000e+002	 5.10645e-002
1548	 1.7168750000e+002	 7.62313e-002
1549	 1.7175000000e+002	 6.91579e-002
1550	 1.7181250000e+002	 7.78270e-002
1551	 1.7187500000e+002	 7.85887e-002
1552	 1.7193750000e+002	 8.80897e-002
1553	 1.7200000000e+002	 1.05228e-001
1554	 1.7206250000e+002	 7.34016e-002
1555	 1.7212500000e+002	 6.16300e-002
1556	 1.7218750000e+002	 9.07469e-002
1557	 1.7225000000e+002	 1.21823e-001
1558	 1.7231250000e+002	 6.88889e-002
1559	 1.7237500000e+002	 7.59752e-002
1560	 1.7243750000e+002	 5.22731e-002
1561	 1.7250000000e+002	 2.63706e-002
1562	 1.7256250000e+002	 4.19396e-002
1563	 1.7262500000e+002	 6.25411e-002
1564	 1.7268750000e+002	 5.37134e-002
1565	 1.7275000000e+002	 7.24323e-002
1566	 1.7281250000e+002	 1.05590e-001
1567	 1.7287500000e+002	 7.97415e-002
1568	 1.7293750000e+002	 4.79918e-002
1569	 1.7300000000e+002	 5.30631e-002
1570	 1.7306250000e+002	 5.22332e-002
1571	 1.7312500000e+002	 5.96980e-002
1572	 1.7318750000e+002	 5.35883e-002
1573	 1.7325000000e+002	 1.00288e-001
1574	 1.7331250000e+002	 7.93648e-002
1575	 1.7337500000e+002	 5.79881e-002
1576	 1.7343750000e+002	 5.04144e-002
1577	 1.7350000000e+002	 2.47914e-002
1578	 1.7356250000e+002	 2.74117e-002
1579	 1.7362500000e+002	 4.12640e-002
1580	 1.7368750000e+002	 5.67492e-002
1581	 1.7375000000e+002	 5.02684e-002
1582	 1.7381250000e+002	 4.79983e-002
1583	 1.7387500000e+002	 3.57748e-002
1584	 1.7393750000e+002	 2.50860e-002
1585	 1.7400000000e+002	 2.86191e-002
1586	 1.7406250000e+002	 2.12471e-002
1587	 1.7412500000e+002	 1.88489e-002
1588	 1.7418750000e+002	 5.30348e-002
1589	 1.7425000000e+002	 6.42480e-002
1590	 1.7431250000e+002	 5.09677e-002
1591	 1.7437500000e+002	 6.04843e-002
1592	 1.7443750000e+002	 4.98504e-002
1593	 1.7450000000e+002	 5.98622e-002
1594	 1.7456250000e+002	 6.65230e-002
1595	 1.7462500000e+002	 3.18383e-002
1596	 1.7468750000e+002	 4.28340e-002
1597	 1.7475000000e+002	 7.97972e-002
1598	 1.7481250000e+002	 1.08927e-001
1599	 1.7487500000e+002	 9.30168e-002
1600	 1.7493750000e+002	 3.12757e-002
1601	 1.7500000000e+002	 3.55497e-002
1602	 1.7506250000e+002	 5.78575e-002
1603	 1.7512500000e+002	 6.66265e-002
1604	 1.7518750000e+002	 5.07809e-002
1605	 1.7525000000e+002	 7.94706e-002
1606	 1.7531250000e+002	 6.01689e-002
1607	 1.7537500000e+002	 2.17858e-002
1608	 1.7543750000e+002	 2.24159e-002
1609	 1.7550000000e+002	 4.17094e-002
1610	 1.7556250000e+002	 8.80714e-002
1611	 1.7562500000e+002	 5.95858e-002
1612	 1.7568750000e+002	 3.07675e-002
1613	 1.7575000000e+002	 4.51808e-002
1614	 1.7581250000e+002	 4.02574e-002
1615	 1.7587500000e+002	 5.15974e-002
1616	 1.7593750000e+002	 4.11566e-002
1617	 1.7600000000e+002	 2.65683e-002
1618	 1.7606250000e+002	 4.60185e-002
1619	 1.7612500000e+002	 3.37691e-002
1620	 1.7618750000e+002	 2.01977e-002
1621	 1.7625000000e+002	 3.51859e-002
1622	 1.7631250000e+002	 4.75824e-002
1623	 1.7637500000e+002	 4.33189e-002
1624	 1.7643750000e+002	 6.55138e-002
1625	 1.7650000000e+002	 8.33921e-002
1626	 1.7656250000e+002	 5.85638e-002
1627	 1.7662500000e+002	 2.12729e-002
1628	 1.7668750000e+002	 2.08282e-002
1629	 1.7675000000e+002	 2.61972e-002
1630	 1.7681250000e+002	 3.82856e-002
1631	 1.7687500000e+002	 2.10242e-002
1632	 1.7693750000e+002	 2.39823e-002
1633	 1.7700000000e+002	 4.51945e-002
1634	 1.7706250000e+002	 3.92830e-002
1635	 1.7712500000e+002	 2.78339e-002
1636	 1.7718750000e+002	 3.02367e-002
1637	 1.7725000000e+002	 2.83797e-002
1638	 1.7731250000e+002	 1.69309e-002
1639	 1.7737500000e+002	 2.27718e-002
1640	 1.7743750000e+002	 3.01199e-002
1641	 1.7750000000e+002	 2.47176e-002
1642	 1.7756250000e+002	 1.07680e-002
1643	 1.7762500000e+002	 1.35308e-002
1644	 1.7768750000e+002	 2.74287e-002
1645	 1.7775000000e+002	 3.77510e-002
1646	 1.7781250000e+002	 3.09106e-002
1647	 1.7787500000e+002	 4.27608e-002
1648	 1.7793750000e+002	 2.91957e-002
1649	 1.7800000000e+002	 2.67261e-002
1650	 1.7806250000e+002	 2.37136e-002
1651	 1.7812500000e+002	 3.51311e-002
1652	 1.7818750000e+002	 4.26246e-002
1653	 1.7825000000e+002	 3.35448e-002
1654	 1.7831250000e+002	 2.99965e-002
1655	 1.7837500000e+002	 4.46226e-002
1656	 1.7843750000e+002	 4.11689e-002
1657	 1.7850000000e+002	 4.62043e-002
1658	 1.7856250000e+002	 1.96734e-002
1659	 1.7862500000e+002	 3.67535e-002
1660	 1.7868750000e+002	 2.65640e-002
1661	 1.7875000000e+002	 2.44645e-002
1662	 1.7881250000e+002	 3.60753e-002
1663	 1.7887500000e+002	 3.17047e-002
1664	 1.7893750000e+002	 3.12071e-002
1665	 1.7900000000e+002	 3.86448e-002
1666	 1.7906250000e+002	 2.79137e-002
1667	 1.7912500000e+002	 3.45119e-002
1668	 1.7918750000e+002	 2.55790e-002
1669	 1.7925000000e+002	 4.33885e-002
1670	 1.7931250000e+002	 3.98398e-002
1671	 1.7937500000e+002	 1.61811e-002
1672	 1.7943750000e+002	 1.47442e-002
1673	 1.7950000000e+002	 3.37046e-002
1674	 1.7956250000e+002	 5.34657e-002
1675	 1.7962500000e+002	 4.62860e-002
1676	 1.7968750000e+002	 2.05133e-002
1677	 1.7975000000e+002	 1.60940e-002
1678	 1.7981250000e+002	 1.67971e-002
1679	 1.7987500000e+002	 2.48819e-002
1680	 1.7993750000e+002	 2.22099e-002
1681	 1.8000000000e+002	 2.29316e-002
1682	 1.8006250000e+002	 3.09314e-002
1683	 1.8012500000e+002	 2.01122e-002
1684	 1.8018750000e+002	 1.66730e-002
1685	 1.8025000000e+002	 2.87763e-002
1686	 1.8031250000e+002	 3.25501e-002
1687	 1.8037500000e+002	 4.09867e-002
1688	 1.8043750000e+002	 8.51774e-002
1689	 1.8050000000e+002	 5.97931e-002
1690	 1.8056250000e+002	 4.55134e-002
1691	 1.8062500000e+002	 5.13647e-002
1692	 1.8068750000e+002	 6.24937e-002
1693	 1.8075000000e+002	 5.68134e-002
1694	 1.8081250000e+002	 3.44295e-002
1695	 1.8087500000e+002	 3.73712e-002
1696	 1.8093750000e+002	 3.77588e-002
1697	 1.8100000000e+002	 3.33121e-002
1698	 1.8106250000e+002	 3.94896e-002
1699	 1.8112500000e+002	 3.70630e-002
1700	 1.8118750000e+002	 1.45899e-002
1701	 1.8125000000e+002	 1.70367e-002
1702	 1.8131250000e+002	 3.29251e-002
1703	 1.8137500000e+002	 4.12087e-002
1704	 1.8143750000e+002	 4.47526e-002
1705	 1.8150000000e+002	 6.50025e-002
1706	 1.8156250000e+002	 5.48599e-002
1707	 1.8162500000e+002	 3.27156e-002
1708	 1.8168750000e+002	 3.56556e-002
1709	 1.8175000000e+002	 6.08889e-002
1710	 1.8181250000e+002	 4.41741e-002
1711	 1.8187500000e+002	 5.63423e-002
1712	 1.8193750000e+002	 7.36594e-002
1713	 1.8200000000e+002	 5.72044e-002
1714	 1.8206250000e+002	 4.25362e-002
1715	 1.8212500000e+002	 4.79193e-002
1716	 1.8218750000e+002	 2.30525e-002
1717	 1.8225000000e+002	 1.93720e-002
1718	 1.8231250000e+002	 2.70868e-002
1719	 1.8237500000e+002	 1.90585e-002
1720	 1.8243750000e+002	 2.12326e-002
1721	 1.8250000000e+002	 4.19994e-002
1722	 1.8256250000e+002	 3.69189e-002
1723	 1.8262500000e+002	 4.75841e-002
1724	 1.8268750000e+002	 3.71007e-002
1725	 1.8275000000e+002	 2.26222e-002
1726	 1.8281250000e+002	 2.08696e-002
1727	 1.8287500000e+002	 2.11831e-002
1728	 1.8293750000e+002	 3.76667e-002
1729	 1.8300000000e+002	 4.72201e-002
1730	 1.8306250000e+002	 3.73530e-002
1731	 1.8312500000e+002	 3.34012e-002
1732	 1.8318750000e+002	 4.00860e-002
1733	 1.8325000000e+002	 5.03672e-002
1734	 1.8331250000e+002	 4.14917e-002
1735	 1.8337500000e+002	 1.29332e-002
1736	 1.8343750000e+002	 2.52210e-002
1737	 1.8350000000e+002	 3.20053e-002
1738	 1.8356250000e+002	 4.27892e-002
1739	 1.8362500000e+002	 4.02598e-002
1740	 1.8368750000e+002	 4.04296e-002
1741	 1.8375000000e+002	 3.03313e-002
1742	 1.8381250000e+002	 3.28312e-002
1743	 1.8387500000e+002	 2.66232e-002
1744	 1.8393750000e+002	 2.17995e-002
1745	 1.8400000000e+002	 3.17215e-002
1746	 1.8406250000e+002	 2.30702e-002
1747	 1.8412500000e+002	 4.32330e-002
1748	 1.8418750000e+002	 4.89799e-002
1749	 1.8425000000e+002	 2.74473e-002
1750	 1.8431250000e+002	 3.31980e-002
1751	 1.8437500000e+002	 4.25881e-002
1752	 1.8443750000e+002	 3.20605e-002
1753	 1.8450000000e+002	 1.54461e-002
1754	 1.8456250000e+002	 2.00122e-002
1755	 1.8462500000e+002	 3.03930e-002
1756	 1.8468750000e+002	 2.37230e-002
1757	 1.8475000000e+002	 2.10515e-002
1758	 1.8481250000e+002	 3.24355e-002
1759	 1.8487500000e+002	 2.88847e-002
1760	 1.8493750000e+002	 1.26511e-002
1761	 1.8500000000e+002	 1.01504e-002
1762	 1.8506250000e+002	 1.36469e-002
1763	 1.8512500000e+002	 7.23212e-003
1764	 1.8518750000e+002	 1.36681e-002
1765	 1.8525000000e+002	 1.73440e-002
1766	 1.8531250000e+002	 2.40191e-002
1767	 1.8537500000e+002	 2.77098e-002
1768	 1.8543750000e+002	 2.83142e-002
1769	 1.8550000000e+002	 3.12882e-002
1770	 1.8556250000e+002	 2.92296e-002
1771	 1.8562500000e+002	 3.22497e-002
1772	 1.8568750000e+002	 2.37024e-002
1773	 1.8575000000e+002	 2.72990e-002
1774	 1.8581250000e+002	 2.66493e-002
1775	 1.8587500000e+002	 1.86165e-002
1776	 1.8593750000e+002	 1.99623e-002
1777	 1.8600000000e+002	 3.58366e-002
1778	 1.8606250000e+002	 2.33949e-002
1779	 1.8612500000e+002	 1.77519e-002
1780	 1.8618750000e+002	 1.75327e-002
1781	 1.8625000000e+002	 2.92119e-002
1782	 1.8631250000e+002	 3.71599e-002
1783	 1.8637500000e+002	 5.35402e-002
1784	 1.8643750000e+002	 3.93574e-002
1785	 1.8650000000e+002	 2.66021e-002
1786	 1.8656250000e+002	 2.89804e-002
1787	 1.8662500000e+002	 3.61362e-002
1788	 1.8668750000e+002	 5.50174e-002
1789	 1.8675000000e+002	 4.99149e-002
1790	 1.8681250000e+002	 2.18794e-002
1791	 1.8687500000e+002	 2.60668e-002
1792	 1.8693750000e+002	 3.05873e-002
1793	 1.8700000000e+002	 2.16064e-002
1794	 1.8706250000e+002	 2.16702e-002
1795	 1.8712500000e+002	 3.94039e-002
1796	 1.8718750000e+002	 4.18070e-002
1797	 1.8725000000e+002	 2.13030e-002
1798	 1.8731250000e+002	 2.47036e-002
1799	 1.8737500000e+002	 2.45628e-002
1800	 1.8743750000e+002	 1.16409e-002
1801	 1.8750000000e+002	 1.72368e-002
1802	 1.8756250000e+002	 3.15433e-002
1803	 1.8762500000e+002	 2.20537e-002
1804	 1.8768750000e+002	 1.75362e-002
1805	 1.8775000000e+002	 2.09209e-002
1806	 1.8781250000e+002	 3.15809e-002
1807	 1.8787500000e+002	 2.85122e-002
1808	 1.8793750000e+002	 2.17013e-002
1809	 1.8800000000e+002	 1.90366e-002
1810	 1.8806250000e+002	 3.20383e-002
1811	 1.8812500000e+002	 4.65475e-002
1812	 1.8818750000e+002	 1.44152e-002
1813	 1.8825000000e+002	 2.97874e-002
1814	 1.8831250000e+002	 3.38804e-002
1815	 1.8837500000e+002	 1.95225e-002
1816	 1.8843750000e+002	 2.02928e-002
1817	 1.8850000000e+002	 2.08292e-002
1818	 1.8856250000e+002	 2.38639e-002
1819	 1.8862500000e+002	 2.96678e-002
1820	 1.8868750000e+002	 3.69716e-002
1821	 1.8875000000e+002	 1.71925e-002
1822	 1.8881250000e+002	 1.90100e-002
1823	 1.8887500000e+002	 2.69630e-002
1824	 1.8893750000e+002	 3.35622e-002
1825	 1.8900000000e+002	 2.69191e-002
1826	 1.8906250000e+002	 2.84741e-002
1827	 1.8912500000e+002	 2.82740e-002
1828	 1.8918750000e+002	 1.96932e-002
1829	 1.8925000000e+002	 1.97440e-002
1830	 1.8931250000e+002	 1.76689e-002
1831	 1.8937500000e+002	 2.96355e-002
1832	 1.8943750000e+002	 2.71352e-002
1833	 1.8950000000e+002	 4.41387e-002
1834	 1.8956250000e+002	 5.26459e-002
1835	 1.8962500000e+002	 4.55377e-002
1836	 1.8968750000e+002	 2.42914e-002
1837	 1.8975000000e+002	 2.95128e-002
1838	 1.8981250000e+002	 4.81058e-002
1839	 1.8987500000e+002	 2.81944e-002
1840	 1.8993750000e+002	 1.97047e-002
1841	 1.9000000000e+002	 1.68028e-002
1842	 1.9006250000e+002	 2.17836e-002
1843	 1.9012500000e+002	 2.97728e-002
1844	 1.9018750000e+002	 1.61731e-002
1845	 1.9025000000e+002	 3.52425e-002
1846	 1.9031250000e+002	 4.94246e-002
1847	 1.9037500000e+002	 6.81596e-002
1848	 1.9043750000e+002	 6.05619e-002
1849	 1.9050000000e+002	 2.84305e-002
1850	 1.9056250000e+002	 3.88643e-002
1851	 1.9062500000e+002	 4.60569e-002
1852	 1.9068750000e+002	 4.99442e-002
1853	 1.9075000000e+002	 4.71952e-002
1854	 1.9081250000e+002	 3.89185e-002
1855	 1.9087500000e+002	 5.09967e-002
1856	 1.9093750000e+002	 4.67394e-002
1857	 1.9100000000e+002	 6.11812e-002
1858	 1.9106250000e+002	 2.68259e-002
1859	 1.9112500000e+002	 1.66184e-002
1860	 1.9118750000e+002	 2.52531e-002
1861	 1.9125000000e+002	 2.06843e-002
1862	 1.9131250000e+002	 2.82526e-002
1863	 1.9137500000e+002	 2.96524e-002
1864	 1.9143750000e+002	 2.79785e-002
1865	 1.9150000000e+002	 2.21828e-002
1866	 1.9156250000e+002	 2.16228e-002
1867	 1.9162500000e+002	 1.99366e-002
1868	 1.9168750000e+002	 2.86886e-002
1869	 1.9175000000e+002	 3.30461e-002
1870	 1.9181250000e+002	 4.90862e-002
1871	 1.9187500000e+002	 4.15084e-002
1872	 1.9193750000e+002	 2.55568e-002
1873	 1.9200000000e+002	 2.45559e-002
1874	 1.9206250000e+002	 2.48996e-002
1875	 1.9212500000e+002	 3.06833e-002
1876	 1.9218750000e+002	 5.66264e-002
1877	 1.9225000000e+002	 6.44098e-002
1878	 1.9231250000e+002	 3.73679e-002
1879	 1.9237500000e+002	 2.34177e-002
1880	 1.9243750000e+002	 3.97963e-002
1881	 1.9250000000e+002	 4.28102e-002
1882	 1.9256250000e+002	 3.27093e-002
1883	 1.9262500000e+002	 2.27216e-002
1884	 1.9268750000e+002	 2.38513e-002
1885	 1.9275000000e+002	 2.13536e-002
1886	 1.9281250000e+002	 3.07082e-002
1887	 1.9287500000e+002	 2.42330e-002
1888	 1.9293750000e+002	 2.50593e-002
1889	 1.9300000000e+002	 3.10060e-002
1890	 1.9306250000e+002	 2.45917e-002
1891	 1.9312500000e+002	 2.68826e-002
1892	 1.9318750000e+002	 2.68262e-002
1893	 1.9325000000e+002	 2.08603e-002
1894	 1.9331250000e+002	 3.54382e-002
1895	 1.9337500000e+002	 3.54705e-002
1896	 1.9343750000e+002	 1.74921e-002
1897	 1.9350000000e+002	 2.68281e-002
1898	 1.9356250000e+002	 2.14242e-002
1899	 1.9362500000e+002	 3.51690e-002
1900	 1.9368750000e+002	 3.55040e-002
1901	 1.9375000000e+002	 3.04500e-002
1902	 1.9381250000e+002	 1.83358e-002
1903	 1.9387500000e+002	 1.20845e-002
1904	 1.9393750000e+002	 1.95539e-002
1905	 1.9400000000e+002	 2.89253e-002
1906	 1.9406250000e+002	 3.87645e-002
1907	 1.9412500000e+002	 4.99746e-002
1908	 1.9418750000e+002	 4.14629e-002
1909	 1.9425000000e+002	 3.90659e-002
1910	 1.9431250000e+002	 3.09706e-002
1911	 1.9437500000e+002	 4.70726e-002
1912	 1.9443750000e+002	 7.12811e-002
1913	 1.9450000000e+002	 4.04455e-002
1914	 1.9456250000e+002	 4.04741e-002
1915	 1.9462500000e+002	 4.38204e-002
1916	 1.9468750000e+002	 5.47233e-002
1917	 1.9475000000e+002	 3.36215e-002
1918	 1.9481250000e+002	 3.79475e-002
1919	 1.9487500000e+002	 3.20724e-002
1920	 1.9493750000e+002	 2.03609e-002
1921	 1.9500000000e+002	 4.24437e-002
1922	 1.9506250000e+002	 5.38457e-002
1923	 1.9512500000e+002	 3.50646e-002
1924	 1.9518750000e+002	 2.84395e-002
1925	 1.9525000000e+002	 1.84403e-002
1926	 1.9531250000e+002	 2.96395e-002
1927	 1.9537500000e+002	 2.99532e-002
1928	 1.9543750000e+002	 2.57408e-002
1929	 1.9550000000e+002	 3.46444e-002
1930	 1.9556250000e+002	 2.43073e-002
1931	 1.9562500000e+002	 2.95657e-002
1932	 1.9568750000e+002	 4.88285e-002
1933	 1.9575000000e+002	 5.90376e-002
1934	 1.9581250000e+002	 3.58572e-002
1935	 1.9587500000e+002	 3.37786e-002
1936	 1.9593750000e+002	 2.81731e-002
1937	 1.9600000000e+002	 2.11875e-002
1938	 1.9606250000e+002	 2.62980e-002
1939	 1.9612500000e+002	 3.93702e-002
1940	 1.9618750000e+002	 3.25407e-002
1941	 1.9625000000e+002	 1.55088e-002
1942	 1.9631250000e+002	 1.61071e-002
1943	 1.9637500000e+002	 1.18282e-002
1944	 1.9643750000e+002	 1.69258e-002
1945	 1.9650000000e+002	 2.03901e-002
1946	 1.9656250000e+002	 2.61818e-002
1947	 1.9662500000e+002	 4.45240e-002
1948	 1.9668750000e+002	 5.13210e-002
1949	 1.9675000000e+002	 2.31119e-002
1950	 1.9681250000e+002	 1.18890e-002
1951	 1.9687500000e+002	 2.97915e-002
1952	 1.9693750000e+002	 6.99654e-002
1953	 1.9700000000e+002	 6.94108e-002
1954	 1.9706250000e+002	 4.68906e-002
1955	 1.9712500000e+002	 4.18060e-002
1956	 1.9718750000e+002	 7.70851e-002
1957	 1.9725000000e+002	 5.02378e-002
1958	 1.9731250000e+002	 3.85701e-002
1959	 1.9737500000e+002	 2.26840e-002
1960	 1.9743750000e+002	 3.14386e-002
1961	 1.9750000000e+002	 6.49660e-002
1962	 1.9756250000e+002	 6.10812e-002
1963	 1.9762500000e+002	 4.85726e-002
1964	 1.9768750000e+002	 3.63309e-002
1965	 1.9775000000e+002	 2.28204e-002
1966	 1.9781250000e+002	 1.80370e-002
1967	 1.9787500000e+002	 3.56692e-002
1968	 1.9793750000e+002	 8.99465e-002
1969	 1.9800000000e+002	 5.81205e-002
1970	 1.9806250000e+002	 3.33249e-002
1971	 1.9812500000e+002	 3.34360e-002
1972	 1.9818750000e+002	 3.98730e-002
1973	 1.9825000000e+002	 2.87365e-002
1974	 1.9831250000e+002	 2.31919e-002
1975	 1.9837500000e+002	 3.15387e-002
1976	 1.9843750000e+002	 3.05909e-002
1977	 1.9850000000e+002	 1.54169e-002
1978	 1.9856250000e+002	 1.64568e-002
1979	 1.9862500000e+002	 1.82348e-002
1980	 1.9868750000e+002	 2.35925e-002
1981	 1.9875000000e+002	 5.65077e-002
1982	 1.9881250000e+002	 4.85242e-002
1983	 1.9887500000e+002	 3.54592e-002
1984	 1.9893750000e+002	 3.69833e-002
1985	 1.9900000000e+002	 6.34147e-002
1986	 1.9906250000e+002	 5.73998e-002
1987	 1.9912500000e+002	 3.86207e-002
1988	 1.9918750000e+002	 4.14923e-002
1989	 1.9925000000e+002	 5.69150e-002
1990	 1.9931250000e+002	 1.48622e-002
1991	 1.9937500000e+002	 2.16674e-002
1992	 1.9943750000e+002	 3.08311e-002
1993	 1.9950000000e+002	 2.80856e-002
1994	 1.9956250000e+002	 2.15399e-002
1995	 1.9962500000e+002	 2.67063e-002
1996	 1.9968750000e+002	 3.02469e-002
1997	 1.9975000000e+002	 2.44180e-002
1998	 1.9981250000e+002	 2.55751e-002
1999	 1.9987500000e+002	 6.54962e-002
2000	 1.9993750000e+002	 6.26527e-002
2001	 2.0000000000e+002	 6.15719e-002
2002	 2.0006250000e+002	 4.06768e-002
2003	 2.0012500000e+002	 3.23891e-002
2004	 2.0018750000e+002	 5.57390e-002
2005	 2.0025000000e+002	 9.03565e-002
2006	 2.0031250000e+002	 7.45761e-002
2007	 2.0037500000e+002	 8.29844e-002
2008	 2.0043750000e+002	 7.66774e-002
2009	 2.0050000000e+002	 6.88486e-002
2010	 2.0056250000e+002	 8.05611e-002
2011	 2.0062500000e+002	 2.06475e-002
2012	 2.0068750000e+002	 2.77880e-002
2013	 2.0075000000e+002	 2.86934e-002
2014	 2.0081250000e+002	 3.03518e-002
2015	 2.0087500000e+002	 3.58709e-002
2016	 2.0093750000e+002	 5.14441e-002
2017	 2.0100000000e+002	 4.20915e-002
2018	 2.0106250000e+002	 3.61874e-002
2019	 2.0112500000e+002	 4.31248e-002
2020	 2.0118750000e+002	 5.37005e-002
2021	 2.0125000000e+002	 3.97396e-002
2022	 2.0131250000e+002	 2.98242e-002
2023	 2.0137500000e+002	 7.05518e-002
2024	 2.0143750000e+002	 3.91868e-002
2025	 2.0150000000e+002	 2.86814e-002
2026	 2.0156250000e+002	 4.16828e-002
2027	 2.0162500000e+002	 8.12496e-002
2028	 2.0168750000e+002	 1.04120e-001
2029	 2.0175000000e+002	 9.15809e-002
2030	 2.0181250000e+002	 6.52124e-002
2031	 2.0187500000e+002	 7.45719e-002
2032	 2.0193750000e+002	 6.39383e-002
2033	 2.0200000000e+002	 6.85625e-002
2034	 2.0206250000e+002	 6.31115e-002
2035	 2.0212500000e+002	 3.39708e-002
2036	 2.0218750000e+002	 4.68630e-002
2037	 2.0225000000e+002	 4.28612e-002
2038	 2.0231250000e+002	 6.41959e-002
2039	 2.0237500000e+002	 1.12678e-001
2040	 2.0243750000e+002	 8.61814e-002
2041	 2.0250000000e+002	 8.95697e-002
2042	 2.0256250000e+002	 8.15181e-002
2043	 2.0262500000e+002	 7.58216e-002
2044	 2.0268750000e+002	 9.12706e-002
2045	 2.0275000000e+002	 9.29172e-002
2046	 2.0281250000e+002	 7.38280e-002
2047	 2.0287500000e+002	 6.59454e-002
2048	 2.0293750000e+002	 8.91400e-002
2049	 2.0300000000e+002	 9.42363e-002
2050	 2.0306250000e+002	 5.79458e-002
2051	 2.0312500000e+002	 3.79645e-002
2052	 2.0318750000e+002	 5.18466e-002
2053	 2.0325000000e+002	 7.96335e-002
2054	 2.0331250000e+002	 8.16119e-002
2055	 2.0337500000e+002	 5.36614e-002
2056	 2.0343750000e+002	 4.88438e-002
2057	 2.0350000000e+002	 6.17110e-002
2058	 2.0356250000e+002	 9.00249e-002
2059	 2.0362500000e+002	 8.35410e-002
2060	 2.0368750000e+002	 5.18118e-002
2061	 2.0375000000e+002	 4.48094e-002
2062	 2.0381250000e+002	 6.88710e-002
2063	 2.0387500000e+002	 8.78229e-002
2064	 2.0393750000e+002	 7.50559e-002
2065	 2.0400000000e+002	 4.61077e-002
2066	 2.0406250000e+002	 9.22156e-002
2067	 2.0412500000e+002	 9.47573e-002
2068	 2.0418750000e+002	 5.23692e-002
2069	 2.0425000000e+002	 4.53353e-002
2070	 2.0431250000e+002	 5.20245e-002
2071	 2.0437500000e+002	 5.04440e-002
2072	 2.0443750000e+002	 4.45221e-002
2073	 2.0450000000e+002	 3.68011e-002
2074	 2.0456250000e+002	 3.53821e-002
2075	 2.0462500000e+002	 5.52776e-002
2076	 2.0468750000e+002	 7.50333e-002
2077	 2.0475000000e+002	 4.28426e-002
2078	 2.0481250000e+002	 1.00089e-001
2079	 2.0487500000e+002	 1.25936e-001
2080	 2.0493750000e+002	 5.47906e-002
2081	 2.0500000000e+002	 3.75733e-002
2082	 2.0506250000e+002	 5.95603e-002
2083	 2.0512500000e+002	 6.55554e-002
2084	 2.0518750000e+002	 1.01691e-001
2085	 2.0525000000e+002	 1.51086e-001
2086	 2.0531250000e+002	 9.60914e-002
2087	 2.0537500000e+002	 1.02820e-001
2088	 2.0543750000e+002	 8.79084e-002
2089	 2.0550000000e+002	 7.55417e-002
2090	 2.0556250000e+002	 9.81862e-002
2091	 2.0562500000e+002	 1.04816e-001
2092	 2.0568750000e+002	 1.02133e-001
2093	 2.0575000000e+002	 6.94175e-002
2094	 2.0581250000e+002	 7.36327e-002
2095	 2.0587500000e+002	 1.04571e-001
2096	 2.0593750000e+002	 1.29347e-001
2097	 2.0600000000e+002	 1.51466e-001
2098	 2.0606250000e+002	 1.24319e-001
2099	 2.0612500000e+002	 8.79997e-002
2100	 2.0618750000e+002	 8.91275e-002
2101	 2.0625000000e+002	 6.78838e-002
2102	 2.0631250000e+002	 7.78589e-002
2103	 2.0637500000e+002	 7.58407e-002
2104	 2.0643750000e+002	 4.85700e-002
2105	 2.0650000000e+002	 8.21544e-002
2106	 2.0656250000e+002	 5.55632e-002
2107	 2.0662500000e+002	 9.51627e-002
2108	 2.0668750000e+002	 3.01794e-001
2109	 2.0675000000e+002	 2.88745e-001
2110	 2.0681250000e+002	 1.78256e-001
2111	 2.0687500000e+002	 1.72900e-001
2112	 2.0693750000e+002	 1.15941e-001
2113	 2.0700000000e+002	 1.38552e-001
2114	 2.0706250000e+002	 1.23189e-001
2115	 2.0712500000e+002	 5.54406e-002
2116	 2.0718750000e+002	 3.28389e-002
2117	 2.0725000000e+002	 5.10656e-002
2118	 2.0731250000e+002	 9.45051e-002
2119	 2.0737500000e+002	 1.28016e-001
2120	 2.0743750000e+002	 1.12934e-001
2121	 2.0750000000e+002	 8.91852e-002
2122	 2.0756250000e+002	 1.07275e-001
2123	 2.0762500000e+002	 1.66265e-001
2124	 2.0768750000e+002	 9.68802e-002
2125	 2.0775000000e+002	 4.11929e-002
2126	 2.0781250000e+002	 1.30864e-001
2127	 2.0787500000e+002	 1.85318e-001
2128	 2.0793750000e+002	 2.34176e-001
2129	 2.0800000000e+002	 2.97280e-001
2130	 2.0806250000e+002	 1.39054e-001
2131	 2.0812500000e+002	 1.18854e-001
2132	 2.0818750000e+002	 1.99935e-001
2133	 2.0825000000e+002	 3.41905e-001
2134	 2.0831250000e+002	 2.18736e-001
2135	 2.0837500000e+002	 2.20855e-001
2136	 2.0843750000e+002	 1.56367e-001
2137	 2.0850000000e+002	 1.58918e-001
2138	 2.0856250000e+002	 2.90302e-001
2139	 2.0862500000e+002	 2.93621e-001
2140	 2.0868750000e+002	 3.49503e-001
2141	 2.0875000000e+002	 2.49530e-001
2142	 2.0881250000e+002	 1.76127e-001
2143	 2.0887500000e+002	 2.47479e-001
2144	 2.0893750000e+002	 1.36947e-001
2145	 2.0900000000e+002	 1.01770e-001
2146	 2.0906250000e+002	 2.70241e-001
2147	 2.0912500000e+002	 3.13681e-001
2148	 2.0918750000e+002	 5.25967e-001
2149	 2.0925000000e+002	 7.89047e-001
2150	 2.0931250000e+002	 4.31952e-001
2151	 2.0937500000e+002	 2.84705e-001
2152	 2.0943750000e+002	 2.22609e-001
2153	 2.0950000000e+002	 1.65147e-001
2154	 2.0956250000e+002	 2.22657e-001
2155	 2.0962500000e+002	 1.89104e-001
2156	 2.0968750000e+002	 2.47373e-001
2157	 2.0975000000e+002	 1.83881e-001
2158	 2.0981250000e+002	 1.92607e-001
2159	 2.0987500000e+002	 1.97842e-001
2160	 2.0993750000e+002	 1.62088e-001
2161	 2.1000000000e+002	 2.42110e-001
2162	 2.1006250000e+002	 1.64476e-001
2163	 2.1012500000e+002	 8.35607e-002
2164	 2.1018750000e+002	 3.05229e-001
2165	 2.1025000000e+002	 4.50339e-001
2166	 2.1031250000e+002	 3.02812e-001
2167	 2.1037500000e+002	 2.34381e-001
2168	 2.1043750000e+002	 1.36508e-001
2169	 2.1050000000e+002	 1.57361e-001
2170	 2.1056250000e+002	 2.94246e-001
2171	 2.1062500000e+002	 2.41433e-001
2172	 2.1068750000e+002	 2.84586e-001
2173	 2.1075000000e+002	 2.82504e-001
2174	 2.1081250000e+002	 2.57098e-001
2175	 2.1087500000e+002	 4.23227e-001
2176	 2.1093750000e+002	 5.45595e-001
2177	 2.1100000000e+002	 4.41860e-001
2178	 2.1106250000e+002	 2.58129e-001
2179	 2.1112500000e+002	 2.38185e-001
2180	 2.1118750000e+002	 3.30573e-001
2181	 2.1125000000e+002	 2.77906e-001
2182	 2.1131250000e+002	 3.40048e-001
2183	 2.1137500000e+002	 3.75857e-001
2184	 2.1143750000e+002	 4.67415e-001
2185	 2.1150000000e+002	 6.06028e-001
2186	 2.1156250000e+002	 9.46211e-001
2187	 2.1162500000e+002	 6.43113e-001
2188	 2.1168750000e+002	 8.85493e-001
2189	 2.1175000000e+002	 6.01459e-001
2190	 2.1181250000e+002	 5.44667e-001
2191	 2.1187500000e+002	 9.08811e-001
2192	 2.1193750000e+002	 7.20135e-001
2193	 2.1200000000e+002	 4.90343e-001
2194	 2.1206250000e+002	 6.66890e-001
2195	 2.1212500000e+002	 5.62380e-001
2196	 2.1218750000e+002	 1.93741e-001
2197	 2.1225000000e+002	 3.17359e-001
2198	 2.1231250000e+002	 6.62614e-001
2199	 2.1237500000e+002	 6.65263e-001
2200	 2.1243750000e+002	 6.47695e-001
2201	 2.1250000000e+002	 5.33304e-001
2202	 2.1256250000e+002	 8.42818e-001
2203	 2.1262500000e+002	 1.03993e+000
2204	 2.1268750000e+002	 1.37575e+000
2205	 2.1275000000e+002	 8.38090e-001
2206	 2.1281250000e+002	 2.92364e-001
2207	 2.1287500000e+002	 5.23395e-001
2208	 2.1293750000e+002	 5.40765e-001
2209	 2.1300000000e+002	 6.94114e-001
2210	 2.1306250000e+002	 7.70653e-001
2211	 2.1312500000e+002	 4.73628e-001
2212	 2.1318750000e+002	 5.73708e-001
2213	 2.1325000000e+002	 1.15467e+000
2214	 2.1331250000e+002	 1.29526e+000
2215	 2.1337500000e+002	 1.42017e+000
2216	 2.1343750000e+002	 1.28025e+000
2217	 2.1350000000e+002	 1.09354e+000
2218	 2.1356250000e+002	 1.35205e+000
2219	 2.1362500000e+002	 2.00163e+000
2220	 2.1368750000e+002	 1.13173e+000
2221	 2.1375000000e+002	 4.44013e-001
2222	 2.1381250000e+002	 6.33739e-001
2223	 2.1387500000e+002	 8.09811e-001
2224	 2.1393750000e+002	 9.78392e-001
2225	 2.1400000000e+002	 1.15007e+000
2226	 2.1406250000e+002	 1.18819e+000
2227	 2.1412500000e+002	 1.63216e+000
2228	 2.1418750000e+002	 1.28393e+000
2229	 2.1425000000e+002	 2.23050e+000
2230	 2.1431250000e+002	 1.83291e+000
2231	 2.1437500000e+002	 1.26870e+000
2232	 2.1443750000e+002	 1.25645e+000
2233	 2.1450000000e+002	 9.87036e-001
2234	 2.1456250000e+002	 4.08935e-001
2235	 2.1462500000e+002	 6.72187e-001
2236	 2.1468750000e+002	 1.29928e+000
2237	 2.1475000000e+002	 7.95575e-001
2238	 2.1481250000e+002	 5.42703e-001
2239	 2.1487500000e+002	 5.54041e-001
2240	 2.1493750000e+002	 9.28747e-001
2241	 2.1500000000e+002	 1.06674e+000
2242	 2.1506250000e+002	 9.44305e-001
2243	 2.1512500000e+002	 5.78912e-001
2244	 2.1518750000e+002	 7.30941e-001
2245	 2.1525000000e+002	 5.61649e-001
2246	 2.1531250000e+002	 9.05603e-001
2247	 2.1537500000e+002	 6.56859e-001
2248	 2.1543750000e+002	 5.65223e-001
2249	 2.1550000000e+002	 4.05233e-001
2250	 2.1556250000e+002	 5.51801e-001
2251	 2.1562500000e+002	 6.53686e-001
2252	 2.1568750000e+002	 1.01230e+000
2253	 2.1575000000e+002	 8.76763e-001
2254	 2.1581250000e+002	 5.42258e-001
2255	 2.1587500000e+002	 9.24418e-001
2256	 2.1593750000e+002	 8.46579e-001
2257	 2.1600000000e+002	 6.78712e-001
2258	 2.1606250000e+002	 7.92136e-001
2259	 2.1612500000e+002	 8.36293e-001
2260	 2.1618750000e+002	 3.78323e-001
2261	 2.1625000000e+002	 5.99334e-001
2262	 2.1631250000e+002	 6.63939e-001
2263	 2.1637500000e+002	 8.78152e-001
2264	 2.1643750000e+002	 1.51340e+000
2265	 2.1650000000e+002	 7.92224e-001
2266	 2.1656250000e+002	 4.21122e-001
2267	 2.1662500000e+002	 3.80917e-001
2268	 2.1668750000e+002	 5.22743e-001
2269	 2.1675000000e+002	 5.70865e-001
2270	 2.1681250000e+002	 5.18306e-001
2271	 2.1687500000e+002	 4.80475e-001
2272	 2.1693750000e+002	 6.55577e-001
2273	 2.1700000000e+002	 8.80788e-001
2274	 2.1706250000e+002	 7.33072e-001
2275	 2.1712500000e+002	 4.96632e-001
2276	 2.1718750000e+002	 5.32164e-001
2277	 2.1725000000e+002	 4.09152e-001
2278	 2.1731250000e+002	 4.04728e-001
2279	 2.1737500000e+002	 3.39008e-001
2280	 2.1743750000e+002	 4.85041e-001
2281	 2.1750000000e+002	 3.85577e-001
2282	 2.1756250000e+002	 3.87232e-001
2283	 2.1762500000e+002	 4.06470e-001
2284	 2.1768750000e+002	 1.44034e-001
2285	 2.1775000000e+002	 3.22543e-001
2286	 2.1781250000e+002	 4.05995e-001
2287	 2.1787500000e+002	 1.89519e-001
2288	 2.1793750000e+002	 2.87334e-001
2289	 2.1800000000e+002	 3.43503e-001
2290	 2.1806250000e+002	 2.73277e-001
2291	 2.1812500000e+002	 3.13012e-001
2292	 2.1818750000e+002	 3.14178e-001
2293	 2.1825000000e+002	 4.57185e-001
2294	 2.1831250000e+002	 3.46067e-001
2295	 2.1837500000e+002	 4.09828e-001
2296	 2.1843750000e+002	 2.50043e-001
2297	 2.1850000000e+002	 2.87426e-001
2298	 2.1856250000e+002	 3.08304e-001
2299	 2.1862500000e+002	 2.00800e-001
2300	 2.1868750000e+002	 4.51642e-001
2301	 2.1875000000e+002	 4.38593e-001
2302	 2.1881250000e+002	 2.28036e-001
2303	 2.1887500000e+002	 1.36193e-001
2304	 2.1893750000e+002	 1.82593e-001
2305	 2.1900000000e+002	 2.41425e-001
2306	 2.1906250000e+002	 2.83134e-001
2307	 2.1912500000e+002	 1.84672e-001
2308	 2.1918750000e+002	 2.15752e-001
2309	 2.1925000000e+002	 3.03447e-001
2310	 2.1931250000e+002	 1.83573e-001
2311	 2.1937500000e+002	 3.35966e-001
2312	 2.1943750000e+002	 3.30091e-001
2313	 2.1950000000e+002	 2.16660e-001
2314	 2.1956250000e+002	 1.78463e-001
2315	 2.1962500000e+002	 2.00316e-001
2316	 2.1968750000e+002	 2.49750e-001
2317	 2.1975000000e+002	 1.60471e-001
2318	 2.1981250000e+002	 2.49161e-001
2319	 2.1987500000e+002	 1.14107e-001
2320	 2.1993750000e+002	 1.53482e-001
2321	 2.2000000000e+002	 1.53687e-001
2322	 2.2006250000e+002	 1.83428e-001
2323	 2.2012500000e+002	 2.70516e-001
2324	 2.2018750000e+002	 3.53822e-001
2325	 2.2025000000e+002	 3.30488e-001
2326	 2.2031250000e+002	 2.07042e-001
2327	 2.2037500000e+002	 2.92699e-001
2328	 2.2043750000e+002	 2.82304e-001
2329	 2.2050000000e+002	 2.26062e-001
2330	 2.2056250000e+002	 1.27785e-001
2331	 2.2062500000e+002	 1.06210e-001
2332	 2.2068750000e+002	 1.45755e-001
2333	 2.2075000000e+002	 1.11500e-001
2334	 2.2081250000e+002	 1.81473e-001
2335	 2.2087500000e+002	 3.62368e-001
2336	 2.2093750000e+002	 3.03149e-001
2337	 2.2100000000e+002	 2.13153e-001
2338	 2.2106250000e+002	 3.88393e-001
2339	 2.2112500000e+002	 2.61625e-001
2340	 2.2118750000e+002	 8.13413e-002
2341	 2.2125000000e+002	 5.47875e-002
2342	 2.2131250000e+002	 9.53774e-002
2343	 2.2137500000e+002	 1.09867e-001
2344	 2.2143750000e+002	 1.10111e-001
2345	 2.2150000000e+002	 1.54745e-001
2346	 2.2156250000e+002	 1.69409e-001
2347	 2.2162500000e+002	 1.25755e-001
2348	 2.2168750000e+002	 1.56583e-001
2349	 2.2175000000e+002	 8.73162e-002
2350	 2.2181250000e+002	 1.04126e-001
2351	 2.2187500000e+002	 1.07313e-001
2352	 2.2193750000e+002	 1.03103e-001
2353	 2.2200000000e+002	 8.79213e-002
2354	 2.2206250000e+002	 5.75311e-002
2355	 2.2212500000e+002	 1.19556e-001
2356	 2.2218750000e+002	 1.75848e-001
2357	 2.2225000000e+002	 5.52837e-002
2358	 2.2231250000e+002	 5.61001e-002
2359	 2.2237500000e+002	 6.21890e-002
2360	 2.2243750000e+002	 5.00831e-002
2361	 2.2250000000e+002	 5.44243e-002
2362	 2.2256250000e+002	 5.14562e-002
2363	 2.2262500000e+002	 6.03280e-002
2364	 2.2268750000e+002	 7.15354e-002
2365	 2.2275000000e+002	 5.69211e-002
2366	 2.2281250000e+002	 3.83291e-002
2367	 2.2287500000e+002	 5.43625e-002
2368	 2.2293750000e+002	 6.48002e-002
2369	 2.2300000000e+002	 4.15865e-002
2370	 2.2306250000e+002	 3.54083e-002
2371	 2.2312500000e+002	 7.84480e-002
2372	 2.2318750000e+002	 1.15679e-001
2373	 2.2325000000e+002	 1.06895e-001
2374	 2.2331250000e+002	 7.60016e-002
2375	 2.2337500000e+002	 8.94677e-002
2376	 2.2343750000e+002	 7.68432e-002
2377	 2.2350000000e+002	 9.46737e-002
2378	 2.2356250000e+002	 8.57813e-002
2379	 2.2362500000e+002	 9.30200e-002
2380	 2.2368750000e+002	 1.29984e-001
2381	 2.2375000000e+002	 7.83397e-002
2382	 2.2381250000e+002	 2.83847e-002
2383	 2.2387500000e+002	 3.56333e-002
2384	 2.2393750000e+002	 1.06555e-001
2385	 2.2400000000e+002	 1.17800e-001
2386	 2.2406250000e+002	 7.47195e-002
2387	 2.2412500000e+002	 6.25796e-002
2388	 2.2418750000e+002	 9.25134e-002
2389	 2.2425000000e+002	 4.92379e-002
2390	 2.2431250000e+002	 3.40062e-002
2391	 2.2437500000e+002	 4.07454e-002
2392	 2.2443750000e+002	 3.68595e-002
2393	 2.2450000000e+002	 4.07681e-002
2394	 2.2456250000e+002	 4.85539e-002
2395	 2.2462500000e+002	 6.33654e-002
2396	 2.2468750000e+002	 7.67312e-002
2397	 2.2475000000e+002	 9.63474e-002
2398	 2.2481250000e+002	 1.41991e-001
2399	 2.2487500000e+002	 1.18027e-001
2400	 2.2493750000e+002	 3.25594e-002
2401	 2.2500000000e+002	 5.47411e-002
2402	 2.2506250000e+002	 7.19823e-002
2403	 2.2512500000e+002	 4.58994e-002
2404	 2.2518750000e+002	 3.66203e-002
2405	 2.2525000000e+002	 7.66043e-002
2406	 2.2531250000e+002	 6.08436e-002
2407	 2.2537500000e+002	 2.55631e-002
2408	 2.2543750000e+002	 2.18579e-002
2409	 2.2550000000e+002	 4.25664e-002
2410	 2.2556250000e+002	 5.18833e-002
2411	 2.2562500000e+002	 5.44354e-002
2412	 2.2568750000e+002	 6.78141e-002
2413	 2.2575000000e+002	 6.47117e-002
2414	 2.2581250000e+002	 6.03913e-002
2415	 2.2587500000e+002	 3.97626e-002
2416	 2.2593750000e+002	 5.34934e-002
2417	 2.2600000000e+002	 6.51396e-002
2418	 2.2606250000e+002	 9.37680e-002
2419	 2.2612500000e+002	 7.04395e-002
2420	 2.2618750000e+002	 4.33449e-002
2421	 2.2625000000e+002	 5.50904e-002
2422	 2.2631250000e+002	 6.65222e-002
2423	 2.2637500000e+002	 5.00065e-002
2424	 2.2643750000e+002	 5.79048e-002
2425	 2.2650000000e+002	 4.88040e-002
2426	 2.2656250000e+002	 9.66781e-002
2427	 2.2662500000e+002	 6.49430e-002
2428	 2.2668750000e+002	 3.10280e-002
2429	 2.2675000000e+002	 3.04317e-002
2430	 2.2681250000e+002	 1.63575e-002
2431	 2.2687500000e+002	 4.68000e-002
2432	 2.2693750000e+002	 1.00803e-001
2433	 2.2700000000e+002	 6.56878e-002
2434	 2.2706250000e+002	 2.86620e-002
2435	 2.2712500000e+002	 1.85415e-002
2436	 2.2718750000e+002	 2.84127e-002
2437	 2.2725000000e+002	 4.32896e-002
2438	 2.2731250000e+002	 4.25687e-002
2439	 2.2737500000e+002	 3.42939e-002
2440	 2.2743750000e+002	 3.82642e-002
2441	 2.2750000000e+002	 6.03744e-002
2442	 2.2756250000e+002	 3.71045e-002
2443	 2.2762500000e+002	 2.61315e-002
2444	 2.2768750000e+002	 6.34740e-002
2445	 2.2775000000e+002	 5.09493e-002
2446	 2.2781250000e+002	 3.56076e-002
2447	 2.2787500000e+002	 5.92631e-002
2448	 2.2793750000e+002	 6.00915e-002
2449	 2.2800000000e+002	 4.92415e-002
2450	 2.2806250000e+002	 3.22987e-002
2451	 2.2812500000e+002	 2.75462e-002
2452	 2.2818750000e+002	 3.83127e-002
2453	 2.2825000000e+002	 2.73483e-002
2454	 2.2831250000e+002	 4.86260e-002
2455	 2.2837500000e+002	 7.19981e-002
2456	 2.2843750000e+002	 5.21004e-002
2457	 2.2850000000e+002	 2.67770e-002
2458	 2.2856250000e+002	 2.95941e-002
2459	 2.2862500000e+002	 3.11493e-002
2460	 2.2868750000e+002	 3.01530e-002
2461	 2.2875000000e+002	 4.63467e-002
2462	 2.2881250000e+002	 4.27268e-002
2463	 2.2887500000e+002	 6.23955e-002
2464	 2.2893750000e+002	 3.91862e-002
2465	 2.2900000000e+002	 3.67439e-002
2466	 2.2906250000e+002	 2.91749e-002
2467	 2.2912500000e+002	 3.45591e-002
2468	 2.2918750000e+002	 3.14056e-002
2469	 2.2925000000e+002	 3.94334e-002
2470	 2.2931250000e+002	 3.32466e-002
2471	 2.2937500000e+002	 4.46658e-002
2472	 2.2943750000e+002	 3.19542e-002
2473	 2.2950000000e+002	 2.13314e-002
2474	 2.2956250000e+002	 2.07924e-002
2475	 2.2962500000e+002	 2.24434e-002
2476	 2.2968750000e+002	 1.51928e-002
2477	 2.2975000000e+002	 2.43619e-002
2478	 2.2981250000e+002	 2.99335e-002
2479	 2.2987500000e+002	 4.81165e-002
2480	 2.2993750000e+002	 6.23860e-002
2481	 2.3000000000e+002	 4.30211e-002
2482	 2.3006250000e+002	 3.77268e-002
2483	 2.3012500000e+002	 4.62043e-002
2484	 2.3018750000e+002	 4.80968e-002
2485	 2.3025000000e+002	 4.15300e-002
2486	 2.3031250000e+002	 3.72672e-002
2487	 2.3037500000e+002	 1.93697e-002
2488	 2.3043750000e+002	 2.24279e-002
2489	 2.3050000000e+002	 1.66096e-002
2490	 2.3056250000e+002	 7.68678e-003
2491	 2.3062500000e+002	 1.05098e-002
2492	 2.3068750000e+002	 1.45015e-002
2493	 2.3075000000e+002	 1.08154e-002
2494	 2.3081250000e+002	 1.32535e-002
2495	 2.3087500000e+002	 1.41098e-002
2496	 2.3093750000e+002	 2.06918e-002
2497	 2.3100000000e+002	 2.38292e-002
2498	 2.3106250000e+002	 1.80741e-002
2499	 2.3112500000e+002	 2.09840e-002
2500	 2.3118750000e+002	 2.13952e-002
2501	 2.3125000000e+002	 1.99271e-002
2502	 2.3131250000e+002	 1.70448e-002
2503	 2.3137500000e+002	 2.38033e-002
2504	 2.3143750000e+002	 3.84000e-002
2505	 2.3150000000e+002	 4.58322e-002
2506	 2.3156250000e+002	 2.43398e-002
2507	 2.3162500000e+002	 2.90403e-002
2508	 2.3168750000e+002	 4.51149e-002
2509	 2.3175000000e+002	 3.14097e-002
2510	 2.3181250000e+002	 2.34639e-002
2511	 2.3187500000e+002	 2.54934e-002
2512	 2.3193750000e+002	 1.56219e-002
2513	 2.3200000000e+002	 6.57732e-003
2514	 2.3206250000e+002	 7.11186e-003
2515	 2.3212500000e+002	 7.92895e-003
2516	 2.3218750000e+002	 1.61996e-002
2517	 2.3225000000e+002	 3.15816e-002
2518	 2.3231250000e+002	 3.38571e-002
2519	 2.3237500000e+002	 3.49438e-002
2520	 2.3243750000e+002	 2.40151e-002
2521	 2.3250000000e+002	 2.03625e-002
2522	 2.3256250000e+002	 3.04810e-002
2523	 2.3262500000e+002	 2.60298e-002
2524	 2.3268750000e+002	 1.71148e-002
2525	 2.3275000000e+002	 8.18894e-003
2526	 2.3281250000e+002	 1.00289e-002
2527	 2.3287500000e+002	 1.40570e-002
2528	 2.3293750000e+002	 2.12917e-002
2529	 2.3300000000e+002	 2.50838e-002
2530	 2.3306250000e+002	 8.84690e-003
2531	 2.3312500000e+002	 5.84221e-003
2532	 2.3318750000e+002	 1.38704e-002
2533	 2.3325000000e+002	 1.70858e-002
2534	 2.3331250000e+002	 2.71057e-002
2535	 2.3337500000e+002	 1.49699e-002
2536	 2.3343750000e+002	 2.75799e-002
2537	 2.3350000000e+002	 4.10655e-002
2538	 2.3356250000e+002	 3.09650e-002
2539	 2.3362500000e+002	 1.58555e-002
2540	 2.3368750000e+002	 9.43138e-003
2541	 2.3375000000e+002	 1.20338e-002
2542	 2.3381250000e+002	 1.33120e-002
2543	 2.3387500000e+002	 1.58137e-002
2544	 2.3393750000e+002	 1.62061e-002
2545	 2.3400000000e+002	 1.36001e-002
2546	 2.3406250000e+002	 1.17196e-002
2547	 2.3412500000e+002	 1.98660e-002
2548	 2.3418750000e+002	 1.82051e-002
2549	 2.3425000000e+002	 2.31816e-002
2550	 2.3431250000e+002	 1.99543e-002
2551	 2.3437500000e+002	 1.44601e-002
2552	 2.3443750000e+002	 1.68751e-002
2553	 2.3450000000e+002	 1.64909e-002
2554	 2.3456250000e+002	 2.31104e-002
2555	 2.3462500000e+002	 3.22753e-002
2556	 2.3468750000e+002	 2.61049e-002
2557	 2.3475000000e+002	 2.06655e-002
2558	 2.3481250000e+002	 2.66393e-002
2559	 2.3487500000e+002	 1.50452e-002
2560	 2.3493750000e+002	 2.44473e-002
2561	 2.3500000000e+002	 1.38886e-002
2562	 2.3506250000e+002	 1.50355e-002
2563	 2.3512500000e+002	 1.96511e-002
2564	 2.3518750000e+002	 1.52229e-002
2565	 2.3525000000e+002	 1.70091e-002
2566	 2.3531250000e+002	 1.88192e-002
2567	 2.3537500000e+002	 1.44676e-002
2568	 2.3543750000e+002	 1.81738e-002
2569	 2.3550000000e+002	 3.73917e-002
2570	 2.3556250000e+002	 3.78794e-002
2571	 2.3562500000e+002	 1.75124e-002
2572	 2.3568750000e+002	 7.82584e-003
2573	 2.3575000000e+002	 1.57917e-002
2574	 2.3581250000e+002	 2.90361e-002
2575	 2.3587500000e+002	 2.49620e-002
2576	 2.3593750000e+002	 1.64540e-002
2577	 2.3600000000e+002	 7.72537e-003
2578	 2.3606250000e+002	 6.30458e-003
2579	 2.3612500000e+002	 1.37594e-002
2580	 2.3618750000e+002	 2.62947e-002
2581	 2.3625000000e+002	 1.67993e-002
2582	 2.3631250000e+002	 1.66287e-002
2583	 2.3637500000e+002	 2.21038e-002
2584	 2.3643750000e+002	 2.23153e-002
2585	 2.3650000000e+002	 1.76993e-002
2586	 2.3656250000e+002	 2.19979e-002
2587	 2.3662500000e+002	 1.18479e-002
2588	 2.3668750000e+002	 1.38507e-002
2589	 2.3675000000e+002	 1.98182e-002
2590	 2.3681250000e+002	 2.12966e-002
2591	 2.3687500000e+002	 1.81843e-002
2592	 2.3693750000e+002	 2.38454e-002
2593	 2.3700000000e+002	 3.49748e-002
2594	 2.3706250000e+002	 2.28983e-002
2595	 2.3712500000e+002	 1.47802e-002
2596	 2.3718750000e+002	 2.25320e-002
2597	 2.3725000000e+002	 2.11652e-002
2598	 2.3731250000e+002	 1.13426e-002
2599	 2.3737500000e+002	 1.83108e-002
2600	 2.3743750000e+002	 2.19860e-002
2601	 2.3750000000e+002	 1.60103e-002
2602	 2.3756250000e+002	 1.26740e-002
2603	 2.3762500000e+002	 1.99753e-002
2604	 2.3768750000e+002	 2.87683e-002
2605	 2.3775000000e+002	 2.12679e-002
2606	 2.3781250000e+002	 2.46384e-002
2607	 2.3787500000e+002	 3.61877e-002
2608	 2.3793750000e+002	 1.67630e-002
2609	 2.3800000000e+002	 1.44084e-002
2610	 2.3806250000e+002	 2.10404e-002
2611	 2.3812500000e+002	 2.82448e-002
2612	 2.3818750000e+002	 1.90429e-002
2613	 2.3825000000e+002	 2.16712e-002
2614	 2.3831250000e+002	 1.47708e-002
2615	 2.3837500000e+002	 9.43597e-003
2616	 2.3843750000e+002	 7.30711e-003
2617	 2.3850000000e+002	 9.11316e-003
2618	 2.3856250000e+002	 1.00799e-002
2619	 2.3862500000e+002	 1.42053e-002
2620	 2.3868750000e+002	 1.86461e-002
2621	 2.3875000000e+002	 1.87649e-002
2622	 2.3881250000e+002	 2.20502e-002
2623	 2.3887500000e+002	 1.51478e-002
2624	 2.3893750000e+002	 1.79976e-002
2625	 2.3900000000e+002	 1.49042e-002
2626	 2.3906250000e+002	 2.39934e-002
2627	 2.3912500000e+002	 2.93489e-002
2628	 2.3918750000e+002	 2.41362e-002
2629	 2.3925000000e+002	 1.56410e-002
2630	 2.3931250000e+002	 1.38151e-002
2631	 2.3937500000e+002	 1.55173e-002
2632	 2.3943750000e+002	 2.14556e-002
2633	 2.3950000000e+002	 2.75008e-002
2634	 2.3956250000e+002	 1.86960e-002
2635	 2.3962500000e+002	 2.27056e-002
2636	 2.3968750000e+002	 2.55498e-002
2637	 2.3975000000e+002	 2.36127e-002
2638	 2.3981250000e+002	 3.31706e-002
2639	 2.3987500000e+002	 1.82075e-002
2640	 2.3993750000e+002	 3.26153e-002
2641	 2.4000000000e+002	 3.44515e-002
2642	 2.4006250000e+002	 1.61813e-002
2643	 2.4012500000e+002	 3.95246e-002
2644	 2.4018750000e+002	 3.06544e-002
2645	 2.4025000000e+002	 6.91798e-003
2646	 2.4031250000e+002	 7.77651e-003
2647	 2.4037500000e+002	 9.81854e-003
2648	 2.4043750000e+002	 9.56856e-003
2649	 2.4050000000e+002	 1.03670e-002
2650	 2.4056250000e+002	 1.81392e-002
2651	 2.4062500000e+002	 1.50288e-002
2652	 2.4068750000e+002	 8.44096e-003
2653	 2.4075000000e+002	 1.93218e-002
2654	 2.4081250000e+002	 2.38020e-002
2655	 2.4087500000e+002	 2.23029e-002
2656	 2.4093750000e+002	 3.06825e-002
2657	 2.4100000000e+002	 3.10767e-002
2658	 2.4106250000e+002	 2.05540e-002
2659	 2.4112500000e+002	 1.04537e-002
2660	 2.4118750000e+002	 1.21650e-002
2661	 2.4125000000e+002	 1.15358e-002
2662	 2.4131250000e+002	 1.41013e-002
2663	 2.4137500000e+002	 2.36191e-002
2664	 2.4143750000e+002	 2.42974e-002
2665	 2.4150000000e+002	 2.55288e-002
2666	 2.4156250000e+002	 1.51987e-002
2667	 2.4162500000e+002	 7.27567e-003
2668	 2.4168750000e+002	 1.37439e-002
2669	 2.4175000000e+002	 1.97881e-002
2670	 2.4181250000e+002	 9.30089e-003
2671	 2.4187500000e+002	 1.75016e-002
2672	 2.4193750000e+002	 2.02753e-002
2673	 2.4200000000e+002	 1.86643e-002
2674	 2.4206250000e+002	 1.57072e-002
2675	 2.4212500000e+002	 1.82429e-002
2676	 2.4218750000e+002	 1.88728e-002
2677	 2.4225000000e+002	 6.93135e-003
2678	 2.4231250000e+002	 7.28003e-003
2679	 2.4237500000e+002	 1.54378e-002
2680	 2.4243750000e+002	 2.13241e-002
2681	 2.4250000000e+002	 9.45659e-003
2682	 2.4256250000e+002	 9.44931e-003
2683	 2.4262500000e+002	 1.35899e-002
2684	 2.4268750000e+002	 9.96140e-003
2685	 2.4275000000e+002	 6.76080e-003
2686	 2.4281250000e+002	 1.12623e-002
2687	 2.4287500000e+002	 9.62587e-003
2688	 2.4293750000e+002	 1.05274e-002
2689	 2.4300000000e+002	 1.62482e-002
2690	 2.4306250000e+002	 2.52957e-002
2691	 2.4312500000e+002	 2.98851e-002
2692	 2.4318750000e+002	 1.73135e-002
2693	 2.4325000000e+002	 1.66798e-002
2694	 2.4331250000e+002	 9.90968e-003
2695	 2.4337500000e+002	 1.61085e-002
2696	 2.4343750000e+002	 2.45027e-002
2697	 2.4350000000e+002	 1.63135e-002
2698	 2.4356250000e+002	 2.16020e-002
2699	 2.4362500000e+002	 1.89867e-002
2700	 2.4368750000e+002	 1.85662e-002
2701	 2.4375000000e+002	 2.66767e-002
2702	 2.4381250000e+002	 1.73375e-002
2703	 2.4387500000e+002	 1.43167e-002
2704	 2.4393750000e+002	 9.88642e-003
2705	 2.4400000000e+002	 1.53741e-002
2706	 2.4406250000e+002	 2.09662e-002
2707	 2.4412500000e+002	 1.94821e-002
2708	 2.4418750000e+002	 1.66775e-002
2709	 2.4425000000e+002	 1.41305e-002
2710	 2.4431250000e+002	 2.22534e-002
2711	 2.4437500000e+002	 1.90122e-002
2712	 2.4443750000e+002	 2.26275e-002
2713	 2.4450000000e+002	 2.74019e-002
2714	 2.4456250000e+002	 2.42084e-002
2715	 2.4462500000e+002	 1.84968e-002
2716	 2.4468750000e+002	 1.58463e-002
2717	 2.4475000000e+002	 2.01941e-002
2718	 2.4481250000e+002	 1.62049e-002
2719	 2.4487500000e+002	 1.57660e-002
2720	 2.4493750000e+002	 3.01657e-002
2721	 2.4500000000e+002	 2.43238e-002
2722	 2.4506250000e+002	 2.20902e-002
2723	 2.4512500000e+002	 2.58678e-002
2724	 2.4518750000e+002	 2.92124e-002
2725	 2.4525000000e+002	 1.13564e-002
2726	 2.4531250000e+002	 1.15366e-002
2727	 2.4537500000e+002	 2.03013e-002
2728	 2.4543750000e+002	 2.38054e-002
2729	 2.4550000000e+002	 3.41737e-002
2730	 2.4556250000e+002	 2.37848e-002
2731	 2.4562500000e+002	 2.19316e-002
2732	 2.4568750000e+002	 3.49437e-002
2733	 2.4575000000e+002	 2.73362e-002
2734	 2.4581250000e+002	 1.90703e-002
2735	 2.4587500000e+002	 1.41948e-002
2736	 2.4593750000e+002	 1.71322e-002
2737	 2.4600000000e+002	 1.65435e-002
2738	 2.4606250000e+002	 1.68044e-002
2739	 2.4612500000e+002	 1.70729e-002
2740	 2.4618750000e+002	 2.01849e-002
2741	 2.4625000000e+002	 1.86652e-002
2742	 2.4631250000e+002	 2.33462e-002
2743	 2.4637500000e+002	 1.82081e-002
2744	 2.4643750000e+002	 1.11520e-002
2745	 2.4650000000e+002	 1.31952e-002
2746	 2.4656250000e+002	 2.28610e-002
2747	 2.4662500000e+002	 2.64587e-002
2748	 2.4668750000e+002	 1.47894e-002
2749	 2.4675000000e+002	 1.79881e-002
2750	 2.4681250000e+002	 1.98435e-002
2751	 2.4687500000e+002	 2.59640e-002
2752	 2.4693750000e+002	 2.53931e-002
2753	 2.4700000000e+002	 3.21256e-002
2754	 2.4706250000e+002	 3.70045e-002
2755	 2.4712500000e+002	 3.22811e-002
2756	 2.4718750000e+002	 2.34446e-002
2757	 2.4725000000e+002	 1.28568e-002
2758	 2.4731250000e+002	 1.78243e-002
2759	 2.4737500000e+002	 1.91160e-002
2760	 2.4743750000e+002	 2.49507e-002
2761	 2.4750000000e+002	 4.27510e-002
2762	 2.4756250000e+002	 2.65387e-002
2763	 2.4762500000e+002	 2.69042e-002
2764	 2.4768750000e+002	 2.40558e-002
2765	 2.4775000000e+002	 2.20422e-002
2766	 2.4781250000e+002	 2.08481e-002
2767	 2.4787500000e+002	 1.81557e-002
2768	 2.4793750000e+002	 1.28892e-002
2769	 2.4800000000e+002	 1.52629e-002
2770	 2.4806250000e+002	 1.39873e-002
2771	 2.4812500000e+002	 1.42655e-002
2772	 2.4818750000e+002	 1.32506e-002
2773	 2.4825000000e+002	 1.16641e-002
2774	 2.4831250000e+002	 1.14899e-002
2775	 2.4837500000e+002	 1.19470e-002
2776	 2.4843750000e+002	 7.93851e-003
2777	 2.4850000000e+002	 5.46707e-003
2778	 2.4856250000e+002	 1.26521e-002
2779	 2.4862500000e+002	 1.43615e-002
2780	 2.4868750000e+002	 2.04128e-002
2781	 2.4875000000e+002	 2.68645e-002
2782	 2.4881250000e+002	 1.30510e-002
2783	 2.4887500000e+002	 1.34988e-002
2784	 2.4893750000e+002	 2.21477e-002
2785	 2.4900000000e+002	 1.47010e-002
2786	 2.4906250000e+002	 2.78030e-002
2787	 2.4912500000e+002	 2.43450e-002
2788	 2.4918750000e+002	 9.30850e-003
2789	 2.4925000000e+002	 9.48233e-003
2790	 2.4931250000e+002	 1.38383e-002
2791	 2.4937500000e+002	 1.39744e-002
2792	 2.4943750000e+002	 2.14233e-002
2793	 2.4950000000e+002	 2.62534e-002
2794	 2.4956250000e+002	 1.35558e-002
2795	 2.4962500000e+002	 6.08551e-003
2796	 2.4968750000e+002	 1.21809e-002
2797	 2.4975000000e+002	 1.15737e-002
2798	 2.4981250000e+002	 1.32201e-002
2799	 2.4987500000e+002	 1.13815e-002
2800	 2.4993750000e+002	 1.90094e-002
2801	 2.5000000000e+002	 3.00605e-002
2802	 2.5006250000e+002	 2.55877e-002
2803	 2.5012500000e+002	 2.60380e-002
2804	 2.5018750000e+002	 2.84950e-002
2805	 2.5025000000e+002	 1.54564e-002
2806	 2.5031250000e+002	 1.76711e-002
2807	 2.5037500000e+002	 1.98717e-002
2808	 2.5043750000e+002	 2.96015e-002
2809	 2.5050000000e+002	 2.40573e-002
2810	 2.5056250000e+002	 3.73431e-002
2811	 2.5062500000e+002	 2.30173e-002
2812	 2.5068750000e+002	 1.89206e-002
2813	 2.5075000000e+002	 1.82710e-002
2814	 2.5081250000e+002	 2.44398e-002
2815	 2.5087500000e+002	 4.71027e-002
2816	 2.5093750000e+002	 2.41691e-002
2817	 2.5100000000e+002	 1.26266e-002
2818	 2.5106250000e+002	 2.74056e-002
2819	 2.5112500000e+002	 3.30563e-002
2820	 2.5118750000e+002	 2.35051e-002
2821	 2.5125000000e+002	 1.96588e-002
2822	 2.5131250000e+002	 3.24629e-002
2823	 2.5137500000e+002	 3.76403e-002
2824	 2.5143750000e+002	 2.65593e-002
2825	 2.5150000000e+002	 2.75928e-002
2826	 2.5156250000e+002	 2.13709e-002
2827	 2.5162500000e+002	 2.55580e-002
2828	 2.5168750000e+002	 2.74881e-002
2829	 2.5175000000e+002	 1.72268e-002
2830	 2.5181250000e+002	 2.13328e-002
2831	 2.5187500000e+002	 1.46928e-002
2832	 2.5193750000e+002	 2.49456e-002
2833	 2.5200000000e+002	 3.91735e-002
2834	 2.5206250000e+002	 3.56226e-002
2835	 2.5212500000e+002	 2.41027e-002
2836	 2.5218750000e+002	 3.17594e-002
2837	 2.5225000000e+002	 3.45260e-002
2838	 2.5231250000e+002	 5.50204e-002
2839	 2.5237500000e+002	 2.45192e-002
2840	 2.5243750000e+002	 2.96356e-002
2841	 2.5250000000e+002	 4.53673e-002
2842	 2.5256250000e+002	 2.64502e-002
2843	 2.5262500000e+002	 2.47132e-002
2844	 2.5268750000e+002	 2.76979e-002
2845	 2.5275000000e+002	 3.67514e-002
2846	 2.5281250000e+002	 2.91407e-002
2847	 2.5287500000e+002	 2.44897e-002
2848	 2.5293750000e+002	 3.97086e-002
2849	 2.5300000000e+002	 2.45431e-002
2850	 2.5306250000e+002	 4.79914e-002
2851	 2.5312500000e+002	 6.27291e-002
2852	 2.5318750000e+002	 3.43988e-002
2853	 2.5325000000e+002	 2.88945e-002
2854	 2.5331250000e+002	 4.24928e-002
2855	 2.5337500000e+002	 3.21910e-002
2856	 2.5343750000e+002	 2.78849e-002
2857	 2.5350000000e+002	 3.05449e-002
2858	 2.5356250000e+002	 4.00916e-002
2859	 2.5362500000e+002	 5.78671e-002
2860	 2.5368750000e+002	 6.03070e-002
2861	 2.5375000000e+002	 5.08642e-002
2862	 2.5381250000e+002	 4.14630e-002
2863	 2.5387500000e+002	 1.05897e-002
2864	 2.5393750000e+002	 1.14786e-002
2865	 2.5400000000e+002	 4.44535e-002
2866	 2.5406250000e+002	 3.74546e-002
2867	 2.5412500000e+002	 1.63183e-002
2868	 2.5418750000e+002	 1.00399e-002
2869	 2.5425000000e+002	 1.27550e-002
2870	 2.5431250000e+002	 4.05019e-002
2871	 2.5437500000e+002	 5.63725e-002
2872	 2.5443750000e+002	 5.33201e-002
2873	 2.5450000000e+002	 4.09282e-002
2874	 2.5456250000e+002	 3.23557e-002
2875	 2.5462500000e+002	 3.21211e-002
2876	 2.5468750000e+002	 2.13726e-002
2877	 2.5475000000e+002	 2.29465e-002
2878	 2.5481250000e+002	 3.86537e-002
2879	 2.5487500000e+002	 4.40326e-002
2880	 2.5493750000e+002	 3.32414e-002
2881	 2.5500000000e+002	 4.90976e-002
2882	 2.5506250000e+002	 3.99573e-002
2883	 2.5512500000e+002	 6.58351e-002
2884	 2.5518750000e+002	 4.15679e-002
2885	 2.5525000000e+002	 2.67023e-002
2886	 2.5531250000e+002	 2.69024e-002
2887	 2.5537500000e+002	 1.91665e-002
2888	 2.5543750000e+002	 1.81152e-002
2889	 2.5550000000e+002	 2.36048e-002
2890	 2.5556250000e+002	 3.72234e-002
2891	 2.5562500000e+002	 3.19722e-002
2892	 2.5568750000e+002	 5.31904e-002
2893	 2.5575000000e+002	 5.52991e-002
2894	 2.5581250000e+002	 5.73146e-002
2895	 2.5587500000e+002	 4.90172e-002
2896	 2.5593750000e+002	 2.25900e-002
2897	 2.5600000000e+002	 2.05672e-002
2898	 2.5606250000e+002	 2.13411e-002
2899	 2.5612500000e+002	 3.49214e-002
2900	 2.5618750000e+002	 3.96537e-002
2901	 2.5625000000e+002	 4.58737e-002
2902	 2.5631250000e+002	 5.27896e-002
2903	 2.5637500000e+002	 2.81369e-002
2904	 2.5643750000e+002	 4.12546e-002
2905	 2.5650000000e+002	 3.36131e-002
2906	 2.5656250000e+002	 5.25674e-002
2907	 2.5662500000e+002	 5.21152e-002
2908	 2.5668750000e+002	 4.43926e-002
2909	 2.5675000000e+002	 3.00255e-002
2910	 2.5681250000e+002	 1.86619e-002
2911	 2.5687500000e+002	 5.45890e-002
2912	 2.5693750000e+002	 6.94569e-002
2913	 2.5700000000e+002	 6.49281e-002
2914	 2.5706250000e+002	 7.25603e-002
2915	 2.5712500000e+002	 7.41996e-002
2916	 2.5718750000e+002	 3.75903e-002
2917	 2.5725000000e+002	 3.98815e-002
2918	 2.5731250000e+002	 5.24001e-002
2919	 2.5737500000e+002	 3.78936e-002
2920	 2.5743750000e+002	 3.75855e-002
2921	 2.5750000000e+002	 5.80125e-002
2922	 2.5756250000e+002	 2.97125e-002
2923	 2.5762500000e+002	 4.35701e-002
2924	 2.5768750000e+002	 6.15587e-002
2925	 2.5775000000e+002	 7.23655e-002
2926	 2.5781250000e+002	 7.13184e-002
2927	 2.5787500000e+002	 6.94608e-002
2928	 2.5793750000e+002	 6.77359e-002
2929	 2.5800000000e+002	 3.53354e-002
2930	 2.5806250000e+002	 2.23834e-002
2931	 2.5812500000e+002	 4.06354e-002
2932	 2.5818750000e+002	 7.52999e-002
2933	 2.5825000000e+002	 1.03861e-001
2934	 2.5831250000e+002	 1.07893e-001
2935	 2.5837500000e+002	 6.94456e-002
2936	 2.5843750000e+002	 7.37454e-002
2937	 2.5850000000e+002	 9.55046e-002
2938	 2.5856250000e+002	 9.16065e-002
2939	 2.5862500000e+002	 1.66259e-001
2940	 2.5868750000e+002	 1.41064e-001
2941	 2.5875000000e+002	 6.77329e-002
2942	 2.5881250000e+002	 8.73575e-002
2943	 2.5887500000e+002	 1.09610e-001
2944	 2.5893750000e+002	 7.99204e-002
2945	 2.5900000000e+002	 8.03903e-002
2946	 2.5906250000e+002	 5.80769e-002
2947	 2.5912500000e+002	 9.98490e-002
2948	 2.5918750000e+002	 1.53517e-001
2949	 2.5925000000e+002	 1.31783e-001
2950	 2.5931250000e+002	 9.01829e-002
2951	 2.5937500000e+002	 1.02916e-001
2952	 2.5943750000e+002	 8.08775e-002
2953	 2.5950000000e+002	 6.92789e-002
2954	 2.5956250000e+002	 6.22061e-002
2955	 2.5962500000e+002	 5.76851e-002
2956	 2.5968750000e+002	 9.08119e-002
2957	 2.5975000000e+002	 1.05504e-001
2958	 2.5981250000e+002	 1.37236e-001
2959	 2.5987500000e+002	 2.19756e-001
2960	 2.5993750000e+002	 1.65505e-001
2961	 2.6000000000e+002	 1.96317e-001
2962	 2.6006250000e+002	 2.31510e-001
2963	 2.6012500000e+002	 1.45768e-001
2964	 2.6018750000e+002	 4.86938e-002
2965	 2.6025000000e+002	 6.97627e-002
2966	 2.6031250000e+002	 8.14386e-002
2967	 2.6037500000e+002	 1.15972e-001
2968	 2.6043750000e+002	 8.03985e-002
2969	 2.6050000000e+002	 9.32963e-002
2970	 2.6056250000e+002	 9.09086e-002
2971	 2.6062500000e+002	 9.21088e-002
2972	 2.6068750000e+002	 1.53222e-001
2973	 2.6075000000e+002	 1.57177e-001
2974	 2.6081250000e+002	 2.14328e-001
2975	 2.6087500000e+002	 1.46333e-001
2976	 2.6093750000e+002	 9.78677e-002
2977	 2.6100000000e+002	 1.02063e-001
2978	 2.6106250000e+002	 9.20308e-002
2979	 2.6112500000e+002	 4.74607e-002
2980	 2.6118750000e+002	 1.00546e-001
2981	 2.6125000000e+002	 2.00136e-001
2982	 2.6131250000e+002	 1.94420e-001
2983	 2.6137500000e+002	 7.26790e-002
2984	 2.6143750000e+002	 1.08409e-001
2985	 2.6150000000e+002	 2.07070e-001
2986	 2.6156250000e+002	 1.22613e-001
2987	 2.6162500000e+002	 1.06492e-001
2988	 2.6168750000e+002	 1.56936e-001
2989	 2.6175000000e+002	 1.61777e-001
2990	 2.6181250000e+002	 1.78373e-001
2991	 2.6187500000e+002	 1.56789e-001
2992	 2.6193750000e+002	 1.29676e-001
2993	 2.6200000000e+002	 7.77484e-002
2994	 2.6206250000e+002	 8.96304e-002
2995	 2.6212500000e+002	 1.64623e-001
2996	 2.6218750000e+002	 1.51322e-001
2997	 2.6225000000e+002	 1.70316e-001
2998	 2.6231250000e+002	 2.80486e-001
2999	 2.6237500000e+002	 1.55259e-001
3000	 2.6243750000e+002	 9.21861e-002
3001	 2.6250000000e+002	 2.39382e-001
3002	 2.6256250000e+002	 3.94627e-001
3003	 2.6262500000e+002	 3.16738e-001
3004	 2.6268750000e+002	 2.17280e-001
3005	 2.6275000000e+002	 2.36527e-001
3006	 2.6281250000e+002	 3.91977e-001
3007	 2.6287500000e+002	 2.20317e-001
3008	 2.6293750000e+002	 1.51892e-001
3009	 2.6300000000e+002	 1.74096e-001
3010	 2.6306250000e+002	 2.15353e-001
3011	 2.6312500000e+002	 5.72861e-001
3012	 2.6318750000e+002	 5.04807e-001
3013	 2.6325000000e+002	 2.42341e-001
3014	 2.6331250000e+002	 1.05569e-001
3015	 2.6337500000e+002	 1.55076e-001
3016	 2.6343750000e+002	 2.21525e-001
3017	 2.6350000000e+002	 1.92670e-001
3018	 2.6356250000e+002	 7.67433e-002
3019	 2.6362500000e+002	 1.83251e-001
3020	 2.6368750000e+002	 3.02177e-001
3021	 2.6375000000e+002	 2.45003e-001
3022	 2.6381250000e+002	 4.56542e-001
3023	 2.6387500000e+002	 6.02155e-001
3024	 2.6393750000e+002	 5.17015e-001
3025	 2.6400000000e+002	 5.41791e-001
3026	 2.6406250000e+002	 3.70290e-001
3027	 2.6412500000e+002	 3.24246e-001
3028	 2.6418750000e+002	 3.54881e-001
3029	 2.6425000000e+002	 3.82575e-001
3030	 2.6431250000e+002	 4.45002e-001
3031	 2.6437500000e+002	 2.23348e-001
3032	 2.6443750000e+002	 1.42269e-001
3033	 2.6450000000e+002	 3.01530e-001
3034	 2.6456250000e+002	 4.96433e-001
3035	 2.6462500000e+002	 4.60492e-001
3036	 2.6468750000e+002	 4.60296e-001
3037	 2.6475000000e+002	 2.77081e-001
3038	 2.6481250000e+002	 7.07517e-001
3039	 2.6487500000e+002	 1.15740e+000
3040	 2.6493750000e+002	 6.82866e-001
3041	 2.6500000000e+002	 6.27826e-001
3042	 2.6506250000e+002	 3.45665e-001
3043	 2.6512500000e+002	 4.91947e-001
3044	 2.6518750000e+002	 3.97151e-001
3045	 2.6525000000e+002	 3.02101e-001
3046	 2.6531250000e+002	 4.05108e-001
3047	 2.6537500000e+002	 5.35865e-001
3048	 2.6543750000e+002	 2.70728e-001
3049	 2.6550000000e+002	 3.29538e-001
3050	 2.6556250000e+002	 4.19153e-001
3051	 2.6562500000e+002	 3.83826e-001
3052	 2.6568750000e+002	 2.39064e-001
3053	 2.6575000000e+002	 2.53803e-001
3054	 2.6581250000e+002	 2.65194e-001
3055	 2.6587500000e+002	 2.62501e-001
3056	 2.6593750000e+002	 5.62181e-001
3057	 2.6600000000e+002	 6.90389e-001
3058	 2.6606250000e+002	 5.31767e-001
3059	 2.6612500000e+002	 6.93462e-001
3060	 2.6618750000e+002	 6.91412e-001
3061	 2.6625000000e+002	 4.91195e-001
3062	 2.6631250000e+002	 6.97795e-001
3063	 2.6637500000e+002	 7.12935e-001
3064	 2.6643750000e+002	 6.61453e-001
3065	 2.6650000000e+002	 8.33636e-001
3066	 2.6656250000e+002	 7.19878e-001
3067	 2.6662500000e+002	 9.56800e-001
3068	 2.6668750000e+002	 6.91885e-001
3069	 2.6675000000e+002	 6.25818e-001
3070	 2.6681250000e+002	 8.80968e-001
3071	 2.6687500000e+002	 6.62836e-001
3072	 2.6693750000e+002	 3.95189e-001
3073	 2.6700000000e+002	 6.13190e-001
3074	 2.6706250000e+002	 6.74841e-001
3075	 2.6712500000e+002	 6.13800e-001
3076	 2.6718750000e+002	 6.72716e-001
3077	 2.6725000000e+002	 6.45012e-001
3078	 2.6731250000e+002	 4.78553e-001
3079	 2.6737500000e+002	 5.89102e-001
3080	 2.6743750000e+002	 1.06249e+000
3081	 2.6750000000e+002	 6.92271e-001
3082	 2.6756250000e+002	 8.22886e-001
3083	 2.6762500000e+002	 1.21369e+000
3084	 2.6768750000e+002	 1.13887e+000
3085	 2.6775000000e+002	 7.08597e-001
3086	 2.6781250000e+002	 4.72698e-001
3087	 2.6787500000e+002	 4.74623e-001
3088	 2.6793750000e+002	 3.45118e-001
3089	 2.6800000000e+002	 3.93559e-001
3090	 2.6806250000e+002	 3.74395e-001
3091	 2.6812500000e+002	 4.39491e-001
3092	 2.6818750000e+002	 6.75798e-001
3093	 2.6825000000e+002	 6.10992e-001
3094	 2.6831250000e+002	 3.91462e-001
3095	 2.6837500000e+002	 7.45911e-001
3096	 2.6843750000e+002	 7.02511e-001
3097	 2.6850000000e+002	 5.68921e-001
3098	 2.6856250000e+002	 4.50639e-001
3099	 2.6862500000e+002	 7.17146e-001
3100	 2.6868750000e+002	 8.88962e-001
3101	 2.6875000000e+002	 5.67066e-001
3102	 2.6881250000e+002	 4.30470e-001
3103	 2.6887500000e+002	 4.03214e-001
3104	 2.6893750000e+002	 6.25002e-001
3105	 2.6900000000e+002	 5.61145e-001
3106	 2.6906250000e+002	 3.51249e-001
3107	 2.6912500000e+002	 4.16221e-001
3108	 2.6918750000e+002	 6.62234e-001
3109	 2.6925000000e+002	 4.56516e-001
3110	 2.6931250000e+002	 3.85143e-001
3111	 2.6937500000e+002	 2.90550e-001
3112	 2.6943750000e+002	 1.72405e-001
3113	 2.6950000000e+002	 2.86790e-001
3114	 2.6956250000e+002	 2.44734e-001
3115	 2.6962500000e+002	 1.79738e-001
3116	 2.6968750000e+002	 2.21998e-001
3117	 2.6975000000e+002	 1.92793e-001
3118	 2.6981250000e+002	 1.57809e-001
3119	 2.6987500000e+002	 2.45458e-001
3120	 2.6993750000e+002	 3.02338e-001
3121	 2.7000000000e+002	 3.79802e-001
3122	 2.7006250000e+002	 3.55365e-001
3123	 2.7012500000e+002	 3.34587e-001
3124	 2.7018750000e+002	 2.64622e-001
3125	 2.7025000000e+002	 1.85866e-001
3126	 2.7031250000e+002	 1.15938e-001
3127	 2.7037500000e+002	 1.50344e-001
3128	 2.7043750000e+002	 1.29397e-001
3129	 2.7050000000e+002	 1.43500e-001
3130	 2.7056250000e+002	 1.12886e-001
3131	 2.7062500000e+002	 8.52792e-002
3132	 2.7068750000e+002	 1.20578e-001
3133	 2.7075000000e+002	 8.31322e-002
3134	 2.7081250000e+002	 1.10808e-001
3135	 2.7087500000e+002	 1.35323e-001
3136	 2.7093750000e+002	 2.17272e-001
3137	 2.7100000000e+002	 3.04001e-001
3138	 2.7106250000e+002	 2.36249e-001
3139	 2.7112500000e+002	 3.57309e-001
3140	 2.7118750000e+002	 3.16836e-001
3141	 2.7125000000e+002	 1.79809e-001
3142	 2.7131250000e+002	 1.18585e-001
3143	 2.7137500000e+002	 1.85447e-001
3144	 2.7143750000e+002	 1.11432e-001
3145	 2.7150000000e+002	 9.52103e-002
3146	 2.7156250000e+002	 1.15772e-001
3147	 2.7162500000e+002	 2.00431e-001
3148	 2.7168750000e+002	 1.53914e-001
3149	 2.7175000000e+002	 1.22191e-001
3150	 2.7181250000e+002	 1.35262e-001
3151	 2.7187500000e+002	 1.73326e-001
3152	 2.7193750000e+002	 1.31706e-001
3153	 2.7200000000e+002	 1.17116e-001
3154	 2.7206250000e+002	 9.94009e-002
3155	 2.7212500000e+002	 3.85301e-002
3156	 2.7218750000e+002	 7.33619e-002
3157	 2.7225000000e+002	 8.18361e-002
3158	 2.7231250000e+002	 1.23233e-001
3159	 2.7237500000e+002	 1.74580e-001
3160	 2.7243750000e+002	 7.81243e-002
3161	 2.7250000000e+002	 7.00973e-002
3162	 2.7256250000e+002	 6.75620e-002
3163	 2.7262500000e+002	 5.80468e-002
3164	 2.7268750000e+002	 7.64905e-002
3165	 2.7275000000e+002	 6.45005e-002
3166	 2.7281250000e+002	 1.11257e-001
3167	 2.7287500000e+002	 1.17822e-001
3168	 2.7293750000e+002	 1.38441e-001
3169	 2.7300000000e+002	 1.64430e-001
3170	 2.7306250000e+002	 1.12126e-001
3171	 2.7312500000e+002	 6.93508e-002
3172	 2.7318750000e+002	 7.19897e-002
3173	 2.7325000000e+002	 8.44630e-002
3174	 2.7331250000e+002	 1.06185e-001
3175	 2.7337500000e+002	 6.20162e-002
3176	 2.7343750000e+002	 8.28355e-002
3177	 2.7350000000e+002	 1.06049e-001
3178	 2.7356250000e+002	 1.46451e-001
3179	 2.7362500000e+002	 1.57474e-001
3180	 2.7368750000e+002	 6.97109e-002
3181	 2.7375000000e+002	 9.70742e-002
3182	 2.7381250000e+002	 1.42459e-001
3183	 2.7387500000e+002	 1.08628e-001
3184	 2.7393750000e+002	 6.28722e-002
3185	 2.7400000000e+002	 3.07541e-002
3186	 2.7406250000e+002	 5.75658e-002
3187	 2.7412500000e+002	 5.04138e-002
3188	 2.7418750000e+002	 5.11740e-002
3189	 2.7425000000e+002	 5.81269e-002
3190	 2.7431250000e+002	 3.50715e-002
3191	 2.7437500000e+002	 7.69989e-002
3192	 2.7443750000e+002	 2.03740e-001
3193	 2.7450000000e+002	 1.87089e-001
3194	 2.7456250000e+002	 8.80827e-002
3195	 2.7462500000e+002	 7.83740e-002
3196	 2.7468750000e+002	 8.58726e-002
3197	 2.7475000000e+002	 7.84926e-002
3198	 2.7481250000e+002	 5.07011e-002
3199	 2.7487500000e+002	 4.42060e-002
3200	 2.7493750000e+002	 4.05722e-002
3201	 2.7500000000e+002	 5.70780e-002
TagsBegin:	 	 
OverLoad:	 	False
AverageNumber: []	 	 6.10000e+001
OverLoadRatio: []	 	 1.19209e-007
TagsEnd:	 	 
TagScalesBegin:	 	 
TagScalesEnd:	 	 
