Header Size:	 78	 
Pulse Version:	 42	 
Decimal Symbol:	.	 
Date Format:	dd-MM-yyyy	 
Time Format:	HH:mm:ss:mmm	 
Data Type:	Real	 
Slice:	False	 
Z-Axis type:	Linear	 
Z-Axis size:	1	 
Z-Axis unit:	 	 
Z-Axis first value:	 0.0000000000e+000	 
Z-Axis delta:	 1.0000000000e+000	 
X-Axis type:	Linear	 
X-Axis size:	3201	 
X-Axis unit:	Hz	 
X-Axis first value:	 7.5000000000e+001	 
X-Axis delta:	 6.2500000000e-002	 
	 	 
AmplitudeUnit:	Pa	 
Analyzer:	FFT_Spectrum_Averaging	 
AnalyzerName:	FFT Analyzer	 
	 	 
	 	 
Bipolar:	False	 
CenterFrequency:	 1.7500000000e+002	 
	 	 
	 	 
	 	 
	 	 
dBReference:	 4.0000000000e-010	 
	 	 
	 	 
	 	 
Domain:	1	 
Function:	Autospectrum	 
	 	 
InputRange:	 2.2376582278e+002	 
	 	 
	 	 
MultiBufferName:	Input	 
NBW:	 1.5000000000e+000	 
	 	 
OverlapFailed:	False	 
Overrun:	False	 
Power:	True	 
PowerUnit:	Pa²	 
	 	 
RecordLength:	 1.6000000000e+001	 
ReducedSize:	True	 
	 	 
	 	 
	 	 
	 	 
	 	 
SamplingRatio:	 1.2800000000e+000	 
Signal:	p_B_source	 
	 	 
SignalUnit:	Pa	 
	 	 
	 	 
	 	 
Title:	Autospectrum(p_B_source) - Input	 
Title1:	Working : Input : Input : FFT Analyzer	 
	 	 
	 	 
Weight:	0	 
ZoomOn:	True	 
	 	 
TemplateName:	Working	 
MeasurementName:	Input	 
MeasurementSlice:	False	 
	 	 
DeltaFrequency:	 6.2500000000e-002	 
	 	 
EnvelopeOn:	False	 
	 	 
	 	 
	 	 
Z-index:	 	1
Date:	 	05-03-2025
Time:	 	12:34:02:987
Relative time:	 	 0.00000e+000
Z-axis:	 	 0.0000000000e+000
1	 7.5000000000e+001	 6.78648e-004
2	 7.5062500000e+001	 6.64850e-004
3	 7.5125000000e+001	 9.27733e-004
4	 7.5187500000e+001	 1.16399e-003
5	 7.5250000000e+001	 1.17441e-003
6	 7.5312500000e+001	 1.43416e-003
7	 7.5375000000e+001	 1.48843e-003
8	 7.5437500000e+001	 1.14783e-003
9	 7.5500000000e+001	 8.77986e-004
10	 7.5562500000e+001	 1.29500e-003
11	 7.5625000000e+001	 1.45850e-003
12	 7.5687500000e+001	 1.17269e-003
13	 7.5750000000e+001	 2.23412e-003
14	 7.5812500000e+001	 2.30109e-003
15	 7.5875000000e+001	 9.86858e-004
16	 7.5937500000e+001	 2.28305e-003
17	 7.6000000000e+001	 2.04353e-003
18	 7.6062500000e+001	 1.19932e-003
19	 7.6125000000e+001	 1.17326e-003
20	 7.6187500000e+001	 6.37286e-004
21	 7.6250000000e+001	 1.09555e-003
22	 7.6312500000e+001	 9.78843e-004
23	 7.6375000000e+001	 7.96199e-004
24	 7.6437500000e+001	 1.16533e-003
25	 7.6500000000e+001	 1.28246e-003
26	 7.6562500000e+001	 7.15184e-004
27	 7.6625000000e+001	 1.45753e-003
28	 7.6687500000e+001	 1.29209e-003
29	 7.6750000000e+001	 8.99461e-004
30	 7.6812500000e+001	 1.17350e-003
31	 7.6875000000e+001	 1.12694e-003
32	 7.6937500000e+001	 1.10670e-003
33	 7.7000000000e+001	 5.75163e-004
34	 7.7062500000e+001	 7.52889e-004
35	 7.7125000000e+001	 7.71378e-004
36	 7.7187500000e+001	 7.62292e-004
37	 7.7250000000e+001	 1.01052e-003
38	 7.7312500000e+001	 1.23338e-003
39	 7.7375000000e+001	 9.04990e-004
40	 7.7437500000e+001	 1.00650e-003
41	 7.7500000000e+001	 4.97979e-004
42	 7.7562500000e+001	 2.20057e-004
43	 7.7625000000e+001	 5.18489e-004
44	 7.7687500000e+001	 1.31924e-003
45	 7.7750000000e+001	 1.31858e-003
46	 7.7812500000e+001	 1.93400e-003
47	 7.7875000000e+001	 1.59898e-003
48	 7.7937500000e+001	 1.00672e-003
49	 7.8000000000e+001	 2.83630e-004
50	 7.8062500000e+001	 5.23906e-004
51	 7.8125000000e+001	 1.21755e-003
52	 7.8187500000e+001	 1.57088e-003
53	 7.8250000000e+001	 1.54784e-003
54	 7.8312500000e+001	 1.13324e-003
55	 7.8375000000e+001	 1.06814e-003
56	 7.8437500000e+001	 1.14621e-003
57	 7.8500000000e+001	 9.40802e-004
58	 7.8562500000e+001	 6.35468e-004
59	 7.8625000000e+001	 9.93836e-004
60	 7.8687500000e+001	 1.04048e-003
61	 7.8750000000e+001	 1.26987e-003
62	 7.8812500000e+001	 8.95827e-004
63	 7.8875000000e+001	 9.65462e-004
64	 7.8937500000e+001	 1.02349e-003
65	 7.9000000000e+001	 7.95357e-004
66	 7.9062500000e+001	 1.46057e-003
67	 7.9125000000e+001	 9.48039e-004
68	 7.9187500000e+001	 6.70271e-004
69	 7.9250000000e+001	 1.23850e-003
70	 7.9312500000e+001	 1.07113e-003
71	 7.9375000000e+001	 1.49480e-003
72	 7.9437500000e+001	 7.54803e-004
73	 7.9500000000e+001	 1.08855e-003
74	 7.9562500000e+001	 9.23844e-004
75	 7.9625000000e+001	 1.11427e-003
76	 7.9687500000e+001	 2.43421e-003
77	 7.9750000000e+001	 1.56009e-003
78	 7.9812500000e+001	 7.67878e-004
79	 7.9875000000e+001	 9.45553e-004
80	 7.9937500000e+001	 8.76417e-004
81	 8.0000000000e+001	 1.43838e-003
82	 8.0062500000e+001	 1.09699e-003
83	 8.0125000000e+001	 1.18202e-003
84	 8.0187500000e+001	 1.26880e-003
85	 8.0250000000e+001	 1.55717e-003
86	 8.0312500000e+001	 1.01261e-003
87	 8.0375000000e+001	 7.62873e-004
88	 8.0437500000e+001	 6.72605e-004
89	 8.0500000000e+001	 1.22122e-003
90	 8.0562500000e+001	 1.04620e-003
91	 8.0625000000e+001	 1.27625e-003
92	 8.0687500000e+001	 1.11060e-003
93	 8.0750000000e+001	 1.18890e-003
94	 8.0812500000e+001	 9.53044e-004
95	 8.0875000000e+001	 1.42986e-003
96	 8.0937500000e+001	 1.11674e-003
97	 8.1000000000e+001	 4.58891e-004
98	 8.1062500000e+001	 5.79877e-004
99	 8.1125000000e+001	 6.24738e-004
100	 8.1187500000e+001	 5.92374e-004
101	 8.1250000000e+001	 8.03356e-004
102	 8.1312500000e+001	 7.82005e-004
103	 8.1375000000e+001	 9.02719e-004
104	 8.1437500000e+001	 5.55672e-004
105	 8.1500000000e+001	 7.82447e-004
106	 8.1562500000e+001	 1.11497e-003
107	 8.1625000000e+001	 9.76217e-004
108	 8.1687500000e+001	 1.06984e-003
109	 8.1750000000e+001	 1.42772e-003
110	 8.1812500000e+001	 1.73025e-003
111	 8.1875000000e+001	 1.40577e-003
112	 8.1937500000e+001	 8.12743e-004
113	 8.2000000000e+001	 8.42258e-004
114	 8.2062500000e+001	 8.30655e-004
115	 8.2125000000e+001	 1.34296e-003
116	 8.2187500000e+001	 2.14908e-003
117	 8.2250000000e+001	 2.01965e-003
118	 8.2312500000e+001	 2.07444e-003
119	 8.2375000000e+001	 2.16611e-003
120	 8.2437500000e+001	 1.35728e-003
121	 8.2500000000e+001	 9.95134e-004
122	 8.2562500000e+001	 1.08192e-003
123	 8.2625000000e+001	 1.31882e-003
124	 8.2687500000e+001	 1.28744e-003
125	 8.2750000000e+001	 1.14074e-003
126	 8.2812500000e+001	 1.49293e-003
127	 8.2875000000e+001	 1.87706e-003
128	 8.2937500000e+001	 7.40901e-004
129	 8.3000000000e+001	 9.82543e-004
130	 8.3062500000e+001	 1.39110e-003
131	 8.3125000000e+001	 9.06401e-004
132	 8.3187500000e+001	 7.59174e-004
133	 8.3250000000e+001	 7.48115e-004
134	 8.3312500000e+001	 8.22123e-004
135	 8.3375000000e+001	 1.39511e-003
136	 8.3437500000e+001	 1.49177e-003
137	 8.3500000000e+001	 7.68039e-004
138	 8.3562500000e+001	 6.30819e-004
139	 8.3625000000e+001	 9.61202e-004
140	 8.3687500000e+001	 1.23395e-003
141	 8.3750000000e+001	 1.01144e-003
142	 8.3812500000e+001	 8.38175e-004
143	 8.3875000000e+001	 1.11652e-003
144	 8.3937500000e+001	 1.24452e-003
145	 8.4000000000e+001	 1.05796e-003
146	 8.4062500000e+001	 5.31884e-004
147	 8.4125000000e+001	 7.88541e-004
148	 8.4187500000e+001	 1.32920e-003
149	 8.4250000000e+001	 1.48329e-003
150	 8.4312500000e+001	 1.38067e-003
151	 8.4375000000e+001	 8.09291e-004
152	 8.4437500000e+001	 9.12552e-004
153	 8.4500000000e+001	 1.06834e-003
154	 8.4562500000e+001	 1.96204e-003
155	 8.4625000000e+001	 1.09896e-003
156	 8.4687500000e+001	 1.72427e-003
157	 8.4750000000e+001	 2.48465e-003
158	 8.4812500000e+001	 1.74231e-003
159	 8.4875000000e+001	 1.29170e-003
160	 8.4937500000e+001	 9.56971e-004
161	 8.5000000000e+001	 8.47022e-004
162	 8.5062500000e+001	 9.84669e-004
163	 8.5125000000e+001	 1.30736e-003
164	 8.5187500000e+001	 1.18479e-003
165	 8.5250000000e+001	 4.52707e-004
166	 8.5312500000e+001	 5.35052e-004
167	 8.5375000000e+001	 1.11966e-003
168	 8.5437500000e+001	 1.22965e-003
169	 8.5500000000e+001	 4.62633e-004
170	 8.5562500000e+001	 3.70410e-004
171	 8.5625000000e+001	 8.22004e-004
172	 8.5687500000e+001	 6.83993e-004
173	 8.5750000000e+001	 1.31017e-003
174	 8.5812500000e+001	 1.10098e-003
175	 8.5875000000e+001	 2.49834e-004
176	 8.5937500000e+001	 5.26268e-004
177	 8.6000000000e+001	 9.81702e-004
178	 8.6062500000e+001	 1.00083e-003
179	 8.6125000000e+001	 8.55234e-004
180	 8.6187500000e+001	 1.75244e-003
181	 8.6250000000e+001	 1.74337e-003
182	 8.6312500000e+001	 1.32697e-003
183	 8.6375000000e+001	 1.26589e-003
184	 8.6437500000e+001	 5.81554e-004
185	 8.6500000000e+001	 8.88077e-004
186	 8.6562500000e+001	 1.79506e-003
187	 8.6625000000e+001	 1.45333e-003
188	 8.6687500000e+001	 9.60076e-004
189	 8.6750000000e+001	 7.02066e-004
190	 8.6812500000e+001	 9.27441e-004
191	 8.6875000000e+001	 1.26399e-003
192	 8.6937500000e+001	 1.04882e-003
193	 8.7000000000e+001	 7.87395e-004
194	 8.7062500000e+001	 1.54795e-003
195	 8.7125000000e+001	 1.06877e-003
196	 8.7187500000e+001	 1.95291e-003
197	 8.7250000000e+001	 1.56739e-003
198	 8.7312500000e+001	 1.31403e-003
199	 8.7375000000e+001	 1.09953e-003
200	 8.7437500000e+001	 1.02401e-003
201	 8.7500000000e+001	 8.99930e-004
202	 8.7562500000e+001	 1.74681e-003
203	 8.7625000000e+001	 2.30568e-003
204	 8.7687500000e+001	 1.35041e-003
205	 8.7750000000e+001	 1.03853e-003
206	 8.7812500000e+001	 1.09622e-003
207	 8.7875000000e+001	 2.08032e-003
208	 8.7937500000e+001	 2.73165e-003
209	 8.8000000000e+001	 2.01166e-003
210	 8.8062500000e+001	 7.96984e-004
211	 8.8125000000e+001	 1.35020e-003
212	 8.8187500000e+001	 1.38258e-003
213	 8.8250000000e+001	 1.30197e-003
214	 8.8312500000e+001	 2.13366e-003
215	 8.8375000000e+001	 1.69400e-003
216	 8.8437500000e+001	 1.97755e-003
217	 8.8500000000e+001	 2.72751e-003
218	 8.8562500000e+001	 2.39880e-003
219	 8.8625000000e+001	 1.90654e-003
220	 8.8687500000e+001	 1.67275e-003
221	 8.8750000000e+001	 1.59854e-003
222	 8.8812500000e+001	 1.38501e-003
223	 8.8875000000e+001	 2.70686e-003
224	 8.8937500000e+001	 2.31778e-003
225	 8.9000000000e+001	 1.39890e-003
226	 8.9062500000e+001	 1.42050e-003
227	 8.9125000000e+001	 2.19068e-003
228	 8.9187500000e+001	 2.43987e-003
229	 8.9250000000e+001	 1.32600e-003
230	 8.9312500000e+001	 1.85497e-003
231	 8.9375000000e+001	 1.71705e-003
232	 8.9437500000e+001	 1.12223e-003
233	 8.9500000000e+001	 2.26359e-003
234	 8.9562500000e+001	 2.81300e-003
235	 8.9625000000e+001	 1.39413e-003
236	 8.9687500000e+001	 1.61475e-003
237	 8.9750000000e+001	 2.16692e-003
238	 8.9812500000e+001	 1.44935e-003
239	 8.9875000000e+001	 1.64824e-003
240	 8.9937500000e+001	 3.62589e-003
241	 9.0000000000e+001	 2.25858e-003
242	 9.0062500000e+001	 1.06074e-003
243	 9.0125000000e+001	 1.00741e-003
244	 9.0187500000e+001	 1.62872e-003
245	 9.0250000000e+001	 1.36598e-003
246	 9.0312500000e+001	 9.61599e-004
247	 9.0375000000e+001	 1.33950e-003
248	 9.0437500000e+001	 2.21509e-003
249	 9.0500000000e+001	 2.43251e-003
250	 9.0562500000e+001	 2.49984e-003
251	 9.0625000000e+001	 2.22676e-003
252	 9.0687500000e+001	 2.55441e-003
253	 9.0750000000e+001	 2.53864e-003
254	 9.0812500000e+001	 2.65693e-003
255	 9.0875000000e+001	 1.27698e-003
256	 9.0937500000e+001	 2.08625e-003
257	 9.1000000000e+001	 2.97473e-003
258	 9.1062500000e+001	 1.42517e-003
259	 9.1125000000e+001	 7.06092e-004
260	 9.1187500000e+001	 1.93936e-003
261	 9.1250000000e+001	 1.78147e-003
262	 9.1312500000e+001	 1.13827e-003
263	 9.1375000000e+001	 2.37859e-003
264	 9.1437500000e+001	 2.06747e-003
265	 9.1500000000e+001	 1.05024e-003
266	 9.1562500000e+001	 1.17376e-003
267	 9.1625000000e+001	 2.22454e-003
268	 9.1687500000e+001	 2.72441e-003
269	 9.1750000000e+001	 3.85545e-003
270	 9.1812500000e+001	 2.64138e-003
271	 9.1875000000e+001	 1.37162e-003
272	 9.1937500000e+001	 2.03278e-003
273	 9.2000000000e+001	 1.43943e-003
274	 9.2062500000e+001	 7.45544e-004
275	 9.2125000000e+001	 1.47826e-003
276	 9.2187500000e+001	 1.22522e-003
277	 9.2250000000e+001	 1.58574e-003
278	 9.2312500000e+001	 2.84140e-003
279	 9.2375000000e+001	 3.19856e-003
280	 9.2437500000e+001	 1.67622e-003
281	 9.2500000000e+001	 1.67344e-003
282	 9.2562500000e+001	 1.75349e-003
283	 9.2625000000e+001	 1.32373e-003
284	 9.2687500000e+001	 1.56549e-003
285	 9.2750000000e+001	 1.95598e-003
286	 9.2812500000e+001	 2.56260e-003
287	 9.2875000000e+001	 4.38793e-003
288	 9.2937500000e+001	 5.35371e-003
289	 9.3000000000e+001	 1.90961e-003
290	 9.3062500000e+001	 4.94020e-003
291	 9.3125000000e+001	 6.37920e-003
292	 9.3187500000e+001	 3.43755e-003
293	 9.3250000000e+001	 1.97806e-003
294	 9.3312500000e+001	 2.33713e-003
295	 9.3375000000e+001	 4.74683e-003
296	 9.3437500000e+001	 2.85719e-003
297	 9.3500000000e+001	 1.05836e-003
298	 9.3562500000e+001	 1.85725e-003
299	 9.3625000000e+001	 3.51031e-003
300	 9.3687500000e+001	 3.58025e-003
301	 9.3750000000e+001	 3.09704e-003
302	 9.3812500000e+001	 3.59075e-003
303	 9.3875000000e+001	 2.44695e-003
304	 9.3937500000e+001	 1.91928e-003
305	 9.4000000000e+001	 1.28980e-003
306	 9.4062500000e+001	 8.57910e-004
307	 9.4125000000e+001	 1.29443e-003
308	 9.4187500000e+001	 1.03939e-003
309	 9.4250000000e+001	 9.43986e-004
310	 9.4312500000e+001	 1.70159e-003
311	 9.4375000000e+001	 4.39160e-003
312	 9.4437500000e+001	 4.18942e-003
313	 9.4500000000e+001	 2.83956e-003
314	 9.4562500000e+001	 3.68882e-003
315	 9.4625000000e+001	 3.28187e-003
316	 9.4687500000e+001	 1.84389e-003
317	 9.4750000000e+001	 1.99500e-003
318	 9.4812500000e+001	 2.76695e-003
319	 9.4875000000e+001	 2.76365e-003
320	 9.4937500000e+001	 2.03410e-003
321	 9.5000000000e+001	 2.01091e-003
322	 9.5062500000e+001	 3.71116e-003
323	 9.5125000000e+001	 5.44916e-003
324	 9.5187500000e+001	 3.34243e-003
325	 9.5250000000e+001	 4.26418e-003
326	 9.5312500000e+001	 3.72863e-003
327	 9.5375000000e+001	 3.39814e-003
328	 9.5437500000e+001	 5.27911e-003
329	 9.5500000000e+001	 6.33939e-003
330	 9.5562500000e+001	 3.87154e-003
331	 9.5625000000e+001	 3.04170e-003
332	 9.5687500000e+001	 3.91551e-003
333	 9.5750000000e+001	 4.00772e-003
334	 9.5812500000e+001	 2.49345e-003
335	 9.5875000000e+001	 2.72596e-003
336	 9.5937500000e+001	 3.41390e-003
337	 9.6000000000e+001	 3.05291e-003
338	 9.6062500000e+001	 2.68314e-003
339	 9.6125000000e+001	 2.91070e-003
340	 9.6187500000e+001	 5.95763e-003
341	 9.6250000000e+001	 6.27883e-003
342	 9.6312500000e+001	 3.59158e-003
343	 9.6375000000e+001	 5.32644e-003
344	 9.6437500000e+001	 7.11471e-003
345	 9.6500000000e+001	 4.00512e-003
346	 9.6562500000e+001	 3.43312e-003
347	 9.6625000000e+001	 4.94295e-003
348	 9.6687500000e+001	 4.94160e-003
349	 9.6750000000e+001	 4.32969e-003
350	 9.6812500000e+001	 8.10498e-003
351	 9.6875000000e+001	 7.75052e-003
352	 9.6937500000e+001	 5.27765e-003
353	 9.7000000000e+001	 4.07927e-003
354	 9.7062500000e+001	 7.79499e-003
355	 9.7125000000e+001	 7.98035e-003
356	 9.7187500000e+001	 9.82868e-003
357	 9.7250000000e+001	 7.48940e-003
358	 9.7312500000e+001	 5.28356e-003
359	 9.7375000000e+001	 5.30974e-003
360	 9.7437500000e+001	 2.52290e-003
361	 9.7500000000e+001	 6.53391e-003
362	 9.7562500000e+001	 7.07902e-003
363	 9.7625000000e+001	 3.46891e-003
364	 9.7687500000e+001	 3.03783e-003
365	 9.7750000000e+001	 6.41564e-003
366	 9.7812500000e+001	 8.78487e-003
367	 9.7875000000e+001	 7.95421e-003
368	 9.7937500000e+001	 5.39797e-003
369	 9.8000000000e+001	 6.34158e-003
370	 9.8062500000e+001	 4.12933e-003
371	 9.8125000000e+001	 3.58177e-003
372	 9.8187500000e+001	 5.17421e-003
373	 9.8250000000e+001	 2.17276e-003
374	 9.8312500000e+001	 4.72148e-003
375	 9.8375000000e+001	 6.63187e-003
376	 9.8437500000e+001	 4.45866e-003
377	 9.8500000000e+001	 5.98840e-003
378	 9.8562500000e+001	 7.16479e-003
379	 9.8625000000e+001	 5.34699e-003
380	 9.8687500000e+001	 4.92449e-003
381	 9.8750000000e+001	 3.27487e-003
382	 9.8812500000e+001	 5.30437e-003
383	 9.8875000000e+001	 1.05584e-002
384	 9.8937500000e+001	 1.01317e-002
385	 9.9000000000e+001	 6.79333e-003
386	 9.9062500000e+001	 5.27961e-003
387	 9.9125000000e+001	 7.19487e-003
388	 9.9187500000e+001	 5.37964e-003
389	 9.9250000000e+001	 8.97924e-003
390	 9.9312500000e+001	 8.27835e-003
391	 9.9375000000e+001	 4.86305e-003
392	 9.9437500000e+001	 3.93660e-003
393	 9.9500000000e+001	 6.14587e-003
394	 9.9562500000e+001	 4.33156e-003
395	 9.9625000000e+001	 3.40055e-003
396	 9.9687500000e+001	 6.52587e-003
397	 9.9750000000e+001	 8.51959e-003
398	 9.9812500000e+001	 5.01093e-003
399	 9.9875000000e+001	 5.15490e-003
400	 9.9937500000e+001	 5.79765e-003
401	 1.0000000000e+002	 6.81292e-003
402	 1.0006250000e+002	 5.91636e-003
403	 1.0012500000e+002	 6.69173e-003
404	 1.0018750000e+002	 5.11204e-003
405	 1.0025000000e+002	 5.75446e-003
406	 1.0031250000e+002	 5.38879e-003
407	 1.0037500000e+002	 1.06182e-002
408	 1.0043750000e+002	 1.55871e-002
409	 1.0050000000e+002	 8.77545e-003
410	 1.0056250000e+002	 5.92386e-003
411	 1.0062500000e+002	 8.19158e-003
412	 1.0068750000e+002	 9.05478e-003
413	 1.0075000000e+002	 1.24135e-002
414	 1.0081250000e+002	 1.61401e-002
415	 1.0087500000e+002	 1.06658e-002
416	 1.0093750000e+002	 9.45141e-003
417	 1.0100000000e+002	 9.51666e-003
418	 1.0106250000e+002	 1.01943e-002
419	 1.0112500000e+002	 1.13226e-002
420	 1.0118750000e+002	 1.03020e-002
421	 1.0125000000e+002	 9.59286e-003
422	 1.0131250000e+002	 8.80539e-003
423	 1.0137500000e+002	 4.16196e-003
424	 1.0143750000e+002	 8.43579e-003
425	 1.0150000000e+002	 6.59437e-003
426	 1.0156250000e+002	 4.48794e-003
427	 1.0162500000e+002	 1.30462e-002
428	 1.0168750000e+002	 1.36232e-002
429	 1.0175000000e+002	 1.53446e-002
430	 1.0181250000e+002	 1.82109e-002
431	 1.0187500000e+002	 1.25231e-002
432	 1.0193750000e+002	 1.03991e-002
433	 1.0200000000e+002	 1.52884e-002
434	 1.0206250000e+002	 1.36709e-002
435	 1.0212500000e+002	 5.88217e-003
436	 1.0218750000e+002	 7.64559e-003
437	 1.0225000000e+002	 9.85689e-003
438	 1.0231250000e+002	 8.41157e-003
439	 1.0237500000e+002	 1.04028e-002
440	 1.0243750000e+002	 1.09229e-002
441	 1.0250000000e+002	 2.08548e-002
442	 1.0256250000e+002	 2.97687e-002
443	 1.0262500000e+002	 2.15810e-002
444	 1.0268750000e+002	 2.11662e-002
445	 1.0275000000e+002	 2.58941e-002
446	 1.0281250000e+002	 2.62508e-002
447	 1.0287500000e+002	 2.57686e-002
448	 1.0293750000e+002	 1.91302e-002
449	 1.0300000000e+002	 1.91864e-002
450	 1.0306250000e+002	 1.46757e-002
451	 1.0312500000e+002	 2.23924e-002
452	 1.0318750000e+002	 4.33403e-002
453	 1.0325000000e+002	 1.81330e-002
454	 1.0331250000e+002	 1.19566e-002
455	 1.0337500000e+002	 1.85965e-002
456	 1.0343750000e+002	 2.31061e-002
457	 1.0350000000e+002	 2.60619e-002
458	 1.0356250000e+002	 3.57280e-002
459	 1.0362500000e+002	 2.12635e-002
460	 1.0368750000e+002	 1.70775e-002
461	 1.0375000000e+002	 1.71348e-002
462	 1.0381250000e+002	 1.72988e-002
463	 1.0387500000e+002	 2.21570e-002
464	 1.0393750000e+002	 2.11909e-002
465	 1.0400000000e+002	 2.64720e-002
466	 1.0406250000e+002	 2.60054e-002
467	 1.0412500000e+002	 1.53742e-002
468	 1.0418750000e+002	 3.59531e-002
469	 1.0425000000e+002	 5.10514e-002
470	 1.0431250000e+002	 3.95422e-002
471	 1.0437500000e+002	 2.80373e-002
472	 1.0443750000e+002	 1.64235e-002
473	 1.0450000000e+002	 1.62444e-002
474	 1.0456250000e+002	 2.11742e-002
475	 1.0462500000e+002	 1.71160e-002
476	 1.0468750000e+002	 3.35857e-002
477	 1.0475000000e+002	 3.67645e-002
478	 1.0481250000e+002	 2.36662e-002
479	 1.0487500000e+002	 3.94445e-002
480	 1.0493750000e+002	 4.95813e-002
481	 1.0500000000e+002	 4.45212e-002
482	 1.0506250000e+002	 2.95564e-002
483	 1.0512500000e+002	 3.66119e-002
484	 1.0518750000e+002	 2.99613e-002
485	 1.0525000000e+002	 3.83567e-002
486	 1.0531250000e+002	 3.97694e-002
487	 1.0537500000e+002	 3.76655e-002
488	 1.0543750000e+002	 5.70033e-002
489	 1.0550000000e+002	 5.91884e-002
490	 1.0556250000e+002	 3.14289e-002
491	 1.0562500000e+002	 3.56718e-002
492	 1.0568750000e+002	 3.91222e-002
493	 1.0575000000e+002	 3.16686e-002
494	 1.0581250000e+002	 1.83461e-002
495	 1.0587500000e+002	 1.42786e-002
496	 1.0593750000e+002	 2.73531e-002
497	 1.0600000000e+002	 6.05081e-002
498	 1.0606250000e+002	 8.67891e-002
499	 1.0612500000e+002	 7.19537e-002
500	 1.0618750000e+002	 4.36271e-002
501	 1.0625000000e+002	 3.22091e-002
502	 1.0631250000e+002	 3.65414e-002
503	 1.0637500000e+002	 7.83201e-002
504	 1.0643750000e+002	 7.39210e-002
505	 1.0650000000e+002	 6.08058e-002
506	 1.0656250000e+002	 1.07702e-001
507	 1.0662500000e+002	 1.03552e-001
508	 1.0668750000e+002	 9.55544e-002
509	 1.0675000000e+002	 7.20750e-002
510	 1.0681250000e+002	 5.79943e-002
511	 1.0687500000e+002	 7.97660e-002
512	 1.0693750000e+002	 1.56664e-001
513	 1.0700000000e+002	 1.73117e-001
514	 1.0706250000e+002	 1.74724e-001
515	 1.0712500000e+002	 2.09790e-001
516	 1.0718750000e+002	 1.41804e-001
517	 1.0725000000e+002	 1.33699e-001
518	 1.0731250000e+002	 1.49491e-001
519	 1.0737500000e+002	 1.11689e-001
520	 1.0743750000e+002	 9.29197e-002
521	 1.0750000000e+002	 1.36858e-001
522	 1.0756250000e+002	 2.00464e-001
523	 1.0762500000e+002	 1.81569e-001
524	 1.0768750000e+002	 2.01111e-001
525	 1.0775000000e+002	 1.52562e-001
526	 1.0781250000e+002	 9.78124e-002
527	 1.0787500000e+002	 1.67992e-001
528	 1.0793750000e+002	 2.12424e-001
529	 1.0800000000e+002	 1.52115e-001
530	 1.0806250000e+002	 9.39852e-002
531	 1.0812500000e+002	 1.28622e-001
532	 1.0818750000e+002	 1.10241e-001
533	 1.0825000000e+002	 1.21222e-001
534	 1.0831250000e+002	 1.87850e-001
535	 1.0837500000e+002	 1.30243e-001
536	 1.0843750000e+002	 7.04113e-002
537	 1.0850000000e+002	 5.18566e-002
538	 1.0856250000e+002	 5.62924e-002
539	 1.0862500000e+002	 5.93878e-002
540	 1.0868750000e+002	 5.11923e-002
541	 1.0875000000e+002	 7.18113e-002
542	 1.0881250000e+002	 8.93852e-002
543	 1.0887500000e+002	 1.11595e-001
544	 1.0893750000e+002	 6.94450e-002
545	 1.0900000000e+002	 9.90736e-002
546	 1.0906250000e+002	 7.55900e-002
547	 1.0912500000e+002	 6.79194e-002
548	 1.0918750000e+002	 9.94681e-002
549	 1.0925000000e+002	 1.07195e-001
550	 1.0931250000e+002	 1.17969e-001
551	 1.0937500000e+002	 1.06687e-001
552	 1.0943750000e+002	 6.93998e-002
553	 1.0950000000e+002	 8.33548e-002
554	 1.0956250000e+002	 9.81176e-002
555	 1.0962500000e+002	 1.43978e-001
556	 1.0968750000e+002	 1.11889e-001
557	 1.0975000000e+002	 6.30049e-002
558	 1.0981250000e+002	 7.86667e-002
559	 1.0987500000e+002	 6.66007e-002
560	 1.0993750000e+002	 1.14930e-001
561	 1.1000000000e+002	 8.66485e-002
562	 1.1006250000e+002	 6.19705e-002
563	 1.1012500000e+002	 8.34595e-002
564	 1.1018750000e+002	 1.47082e-001
565	 1.1025000000e+002	 6.84550e-002
566	 1.1031250000e+002	 9.01988e-002
567	 1.1037500000e+002	 1.15795e-001
568	 1.1043750000e+002	 8.13855e-002
569	 1.1050000000e+002	 6.55730e-002
570	 1.1056250000e+002	 5.23843e-002
571	 1.1062500000e+002	 7.52211e-002
572	 1.1068750000e+002	 5.99887e-002
573	 1.1075000000e+002	 6.49301e-002
574	 1.1081250000e+002	 6.25572e-002
575	 1.1087500000e+002	 8.20427e-002
576	 1.1093750000e+002	 9.54622e-002
577	 1.1100000000e+002	 4.53620e-002
578	 1.1106250000e+002	 5.27028e-002
579	 1.1112500000e+002	 7.18739e-002
580	 1.1118750000e+002	 3.51534e-002
581	 1.1125000000e+002	 2.09492e-002
582	 1.1131250000e+002	 4.07251e-002
583	 1.1137500000e+002	 4.87497e-002
584	 1.1143750000e+002	 3.08870e-002
585	 1.1150000000e+002	 2.81083e-002
586	 1.1156250000e+002	 3.94316e-002
587	 1.1162500000e+002	 3.30348e-002
588	 1.1168750000e+002	 3.04219e-002
589	 1.1175000000e+002	 2.94343e-002
590	 1.1181250000e+002	 3.84489e-002
591	 1.1187500000e+002	 4.95487e-002
592	 1.1193750000e+002	 5.35007e-002
593	 1.1200000000e+002	 5.82457e-002
594	 1.1206250000e+002	 5.93960e-002
595	 1.1212500000e+002	 2.50505e-002
596	 1.1218750000e+002	 3.16342e-002
597	 1.1225000000e+002	 2.97388e-002
598	 1.1231250000e+002	 3.10490e-002
599	 1.1237500000e+002	 4.22456e-002
600	 1.1243750000e+002	 7.65725e-002
601	 1.1250000000e+002	 4.34008e-002
602	 1.1256250000e+002	 3.90494e-002
603	 1.1262500000e+002	 8.08241e-002
604	 1.1268750000e+002	 6.08215e-002
605	 1.1275000000e+002	 5.03605e-002
606	 1.1281250000e+002	 4.61546e-002
607	 1.1287500000e+002	 3.65479e-002
608	 1.1293750000e+002	 2.63356e-002
609	 1.1300000000e+002	 1.47209e-002
610	 1.1306250000e+002	 2.24214e-002
611	 1.1312500000e+002	 3.14726e-002
612	 1.1318750000e+002	 4.26095e-002
613	 1.1325000000e+002	 7.00031e-002
614	 1.1331250000e+002	 6.99595e-002
615	 1.1337500000e+002	 4.79844e-002
616	 1.1343750000e+002	 5.02991e-002
617	 1.1350000000e+002	 5.21246e-002
618	 1.1356250000e+002	 3.14431e-002
619	 1.1362500000e+002	 1.93612e-002
620	 1.1368750000e+002	 2.48700e-002
621	 1.1375000000e+002	 3.40353e-002
622	 1.1381250000e+002	 1.84515e-002
623	 1.1387500000e+002	 1.45026e-002
624	 1.1393750000e+002	 1.88415e-002
625	 1.1400000000e+002	 3.21309e-002
626	 1.1406250000e+002	 2.58139e-002
627	 1.1412500000e+002	 2.78290e-002
628	 1.1418750000e+002	 4.05706e-002
629	 1.1425000000e+002	 4.21777e-002
630	 1.1431250000e+002	 2.93081e-002
631	 1.1437500000e+002	 3.57593e-002
632	 1.1443750000e+002	 3.53724e-002
633	 1.1450000000e+002	 1.68218e-002
634	 1.1456250000e+002	 1.74697e-002
635	 1.1462500000e+002	 1.23821e-002
636	 1.1468750000e+002	 1.83729e-002
637	 1.1475000000e+002	 1.90535e-002
638	 1.1481250000e+002	 9.24916e-003
639	 1.1487500000e+002	 1.31214e-002
640	 1.1493750000e+002	 1.48569e-002
641	 1.1500000000e+002	 2.23277e-002
642	 1.1506250000e+002	 1.69407e-002
643	 1.1512500000e+002	 1.41071e-002
644	 1.1518750000e+002	 1.24664e-002
645	 1.1525000000e+002	 1.38997e-002
646	 1.1531250000e+002	 1.10320e-002
647	 1.1537500000e+002	 1.99871e-002
648	 1.1543750000e+002	 1.60861e-002
649	 1.1550000000e+002	 1.87210e-002
650	 1.1556250000e+002	 2.47085e-002
651	 1.1562500000e+002	 2.17025e-002
652	 1.1568750000e+002	 1.82658e-002
653	 1.1575000000e+002	 1.69597e-002
654	 1.1581250000e+002	 1.24861e-002
655	 1.1587500000e+002	 1.57212e-002
656	 1.1593750000e+002	 1.07144e-002
657	 1.1600000000e+002	 1.15783e-002
658	 1.1606250000e+002	 1.78613e-002
659	 1.1612500000e+002	 2.13570e-002
660	 1.1618750000e+002	 1.52477e-002
661	 1.1625000000e+002	 1.64486e-002
662	 1.1631250000e+002	 1.48002e-002
663	 1.1637500000e+002	 1.48659e-002
664	 1.1643750000e+002	 2.20555e-002
665	 1.1650000000e+002	 2.19699e-002
666	 1.1656250000e+002	 1.52183e-002
667	 1.1662500000e+002	 1.34956e-002
668	 1.1668750000e+002	 1.36896e-002
669	 1.1675000000e+002	 8.81402e-003
670	 1.1681250000e+002	 7.39964e-003
671	 1.1687500000e+002	 7.83856e-003
672	 1.1693750000e+002	 9.84147e-003
673	 1.1700000000e+002	 1.17973e-002
674	 1.1706250000e+002	 1.98304e-002
675	 1.1712500000e+002	 1.45910e-002
676	 1.1718750000e+002	 7.47062e-003
677	 1.1725000000e+002	 7.70694e-003
678	 1.1731250000e+002	 1.42450e-002
679	 1.1737500000e+002	 1.53268e-002
680	 1.1743750000e+002	 9.24355e-003
681	 1.1750000000e+002	 1.02100e-002
682	 1.1756250000e+002	 1.12662e-002
683	 1.1762500000e+002	 8.88662e-003
684	 1.1768750000e+002	 1.05782e-002
685	 1.1775000000e+002	 8.21717e-003
686	 1.1781250000e+002	 9.43145e-003
687	 1.1787500000e+002	 1.14827e-002
688	 1.1793750000e+002	 1.04041e-002
689	 1.1800000000e+002	 5.70913e-003
690	 1.1806250000e+002	 3.93715e-003
691	 1.1812500000e+002	 8.20542e-003
692	 1.1818750000e+002	 2.14492e-002
693	 1.1825000000e+002	 1.45274e-002
694	 1.1831250000e+002	 1.24704e-002
695	 1.1837500000e+002	 8.31623e-003
696	 1.1843750000e+002	 8.61687e-003
697	 1.1850000000e+002	 1.09302e-002
698	 1.1856250000e+002	 8.52067e-003
699	 1.1862500000e+002	 9.71183e-003
700	 1.1868750000e+002	 1.46940e-002
701	 1.1875000000e+002	 1.69153e-002
702	 1.1881250000e+002	 1.10914e-002
703	 1.1887500000e+002	 9.07621e-003
704	 1.1893750000e+002	 1.16700e-002
705	 1.1900000000e+002	 8.52737e-003
706	 1.1906250000e+002	 8.16719e-003
707	 1.1912500000e+002	 4.15551e-003
708	 1.1918750000e+002	 8.43224e-003
709	 1.1925000000e+002	 1.13883e-002
710	 1.1931250000e+002	 1.19815e-002
711	 1.1937500000e+002	 1.40262e-002
712	 1.1943750000e+002	 9.92595e-003
713	 1.1950000000e+002	 5.84300e-003
714	 1.1956250000e+002	 6.01538e-003
715	 1.1962500000e+002	 6.67302e-003
716	 1.1968750000e+002	 9.20922e-003
717	 1.1975000000e+002	 1.65149e-002
718	 1.1981250000e+002	 1.06330e-002
719	 1.1987500000e+002	 1.59024e-002
720	 1.1993750000e+002	 1.22448e-002
721	 1.2000000000e+002	 1.27362e-002
722	 1.2006250000e+002	 1.67388e-002
723	 1.2012500000e+002	 1.00898e-002
724	 1.2018750000e+002	 2.85445e-003
725	 1.2025000000e+002	 9.17923e-003
726	 1.2031250000e+002	 1.39919e-002
727	 1.2037500000e+002	 5.68103e-003
728	 1.2043750000e+002	 6.48960e-003
729	 1.2050000000e+002	 1.11176e-002
730	 1.2056250000e+002	 1.53738e-002
731	 1.2062500000e+002	 1.08762e-002
732	 1.2068750000e+002	 5.38637e-003
733	 1.2075000000e+002	 7.49244e-003
734	 1.2081250000e+002	 1.37432e-002
735	 1.2087500000e+002	 7.44182e-003
736	 1.2093750000e+002	 8.94982e-003
737	 1.2100000000e+002	 1.40101e-002
738	 1.2106250000e+002	 9.47073e-003
739	 1.2112500000e+002	 4.16691e-003
740	 1.2118750000e+002	 6.35484e-003
741	 1.2125000000e+002	 1.04777e-002
742	 1.2131250000e+002	 9.10772e-003
743	 1.2137500000e+002	 3.90078e-003
744	 1.2143750000e+002	 1.34931e-003
745	 1.2150000000e+002	 2.43816e-003
746	 1.2156250000e+002	 2.82402e-003
747	 1.2162500000e+002	 4.63717e-003
748	 1.2168750000e+002	 6.64963e-003
749	 1.2175000000e+002	 5.79601e-003
750	 1.2181250000e+002	 1.09761e-002
751	 1.2187500000e+002	 8.65723e-003
752	 1.2193750000e+002	 4.81201e-003
753	 1.2200000000e+002	 6.30028e-003
754	 1.2206250000e+002	 7.13025e-003
755	 1.2212500000e+002	 1.09779e-002
756	 1.2218750000e+002	 7.45362e-003
757	 1.2225000000e+002	 6.20029e-003
758	 1.2231250000e+002	 5.34629e-003
759	 1.2237500000e+002	 3.30187e-003
760	 1.2243750000e+002	 5.75982e-003
761	 1.2250000000e+002	 1.04052e-002
762	 1.2256250000e+002	 8.58485e-003
763	 1.2262500000e+002	 7.40612e-003
764	 1.2268750000e+002	 7.95258e-003
765	 1.2275000000e+002	 6.59959e-003
766	 1.2281250000e+002	 3.72571e-003
767	 1.2287500000e+002	 3.27187e-003
768	 1.2293750000e+002	 3.61791e-003
769	 1.2300000000e+002	 4.45847e-003
770	 1.2306250000e+002	 4.84559e-003
771	 1.2312500000e+002	 8.75863e-003
772	 1.2318750000e+002	 1.07264e-002
773	 1.2325000000e+002	 6.98425e-003
774	 1.2331250000e+002	 3.65360e-003
775	 1.2337500000e+002	 4.80252e-003
776	 1.2343750000e+002	 2.43298e-003
777	 1.2350000000e+002	 2.15012e-003
778	 1.2356250000e+002	 4.51777e-003
779	 1.2362500000e+002	 5.04451e-003
780	 1.2368750000e+002	 6.56901e-003
781	 1.2375000000e+002	 5.80818e-003
782	 1.2381250000e+002	 9.14281e-003
783	 1.2387500000e+002	 7.82413e-003
784	 1.2393750000e+002	 6.82988e-003
785	 1.2400000000e+002	 5.95691e-003
786	 1.2406250000e+002	 4.29058e-003
787	 1.2412500000e+002	 2.33624e-003
788	 1.2418750000e+002	 6.05564e-003
789	 1.2425000000e+002	 6.72593e-003
790	 1.2431250000e+002	 1.12501e-002
791	 1.2437500000e+002	 9.42221e-003
792	 1.2443750000e+002	 5.68458e-003
793	 1.2450000000e+002	 8.63077e-003
794	 1.2456250000e+002	 1.16173e-002
795	 1.2462500000e+002	 9.09021e-003
796	 1.2468750000e+002	 6.39854e-003
797	 1.2475000000e+002	 7.63346e-003
798	 1.2481250000e+002	 6.24977e-003
799	 1.2487500000e+002	 3.42288e-003
800	 1.2493750000e+002	 3.89386e-003
801	 1.2500000000e+002	 4.95163e-003
802	 1.2506250000e+002	 4.68703e-003
803	 1.2512500000e+002	 4.78684e-003
804	 1.2518750000e+002	 8.37770e-003
805	 1.2525000000e+002	 8.27791e-003
806	 1.2531250000e+002	 6.79601e-003
807	 1.2537500000e+002	 6.14508e-003
808	 1.2543750000e+002	 4.57077e-003
809	 1.2550000000e+002	 5.16145e-003
810	 1.2556250000e+002	 8.87872e-003
811	 1.2562500000e+002	 8.57804e-003
812	 1.2568750000e+002	 5.36288e-003
813	 1.2575000000e+002	 4.28771e-003
814	 1.2581250000e+002	 3.01289e-003
815	 1.2587500000e+002	 3.99384e-003
816	 1.2593750000e+002	 7.68747e-003
817	 1.2600000000e+002	 9.03514e-003
818	 1.2606250000e+002	 6.81827e-003
819	 1.2612500000e+002	 5.05403e-003
820	 1.2618750000e+002	 4.95845e-003
821	 1.2625000000e+002	 6.66430e-003
822	 1.2631250000e+002	 4.57641e-003
823	 1.2637500000e+002	 2.11613e-003
824	 1.2643750000e+002	 3.79593e-003
825	 1.2650000000e+002	 4.89307e-003
826	 1.2656250000e+002	 8.56051e-003
827	 1.2662500000e+002	 3.98744e-003
828	 1.2668750000e+002	 2.48032e-003
829	 1.2675000000e+002	 2.31028e-003
830	 1.2681250000e+002	 4.26772e-003
831	 1.2687500000e+002	 6.08466e-003
832	 1.2693750000e+002	 6.52020e-003
833	 1.2700000000e+002	 5.44112e-003
834	 1.2706250000e+002	 5.77964e-003
835	 1.2712500000e+002	 5.78921e-003
836	 1.2718750000e+002	 6.75872e-003
837	 1.2725000000e+002	 1.07404e-002
838	 1.2731250000e+002	 4.84373e-003
839	 1.2737500000e+002	 5.26735e-003
840	 1.2743750000e+002	 5.62627e-003
841	 1.2750000000e+002	 4.53840e-003
842	 1.2756250000e+002	 3.71737e-003
843	 1.2762500000e+002	 3.56452e-003
844	 1.2768750000e+002	 3.80988e-003
845	 1.2775000000e+002	 5.41347e-003
846	 1.2781250000e+002	 3.89356e-003
847	 1.2787500000e+002	 2.10261e-003
848	 1.2793750000e+002	 2.82218e-003
849	 1.2800000000e+002	 6.23352e-003
850	 1.2806250000e+002	 3.95444e-003
851	 1.2812500000e+002	 4.69556e-003
852	 1.2818750000e+002	 5.59397e-003
853	 1.2825000000e+002	 7.29839e-003
854	 1.2831250000e+002	 6.90077e-003
855	 1.2837500000e+002	 3.82913e-003
856	 1.2843750000e+002	 4.04726e-003
857	 1.2850000000e+002	 5.37319e-003
858	 1.2856250000e+002	 6.10284e-003
859	 1.2862500000e+002	 2.97044e-003
860	 1.2868750000e+002	 1.59276e-003
861	 1.2875000000e+002	 3.10943e-003
862	 1.2881250000e+002	 6.18784e-003
863	 1.2887500000e+002	 8.59912e-003
864	 1.2893750000e+002	 6.99709e-003
865	 1.2900000000e+002	 3.49634e-003
866	 1.2906250000e+002	 1.54666e-003
867	 1.2912500000e+002	 2.78286e-003
868	 1.2918750000e+002	 8.64638e-003
869	 1.2925000000e+002	 1.01407e-002
870	 1.2931250000e+002	 5.19649e-003
871	 1.2937500000e+002	 4.87104e-003
872	 1.2943750000e+002	 4.28384e-003
873	 1.2950000000e+002	 4.56952e-003
874	 1.2956250000e+002	 8.09422e-003
875	 1.2962500000e+002	 7.59699e-003
876	 1.2968750000e+002	 3.39195e-003
877	 1.2975000000e+002	 3.42342e-003
878	 1.2981250000e+002	 4.20423e-003
879	 1.2987500000e+002	 2.43761e-003
880	 1.2993750000e+002	 4.01985e-003
881	 1.3000000000e+002	 3.74244e-003
882	 1.3006250000e+002	 4.30015e-003
883	 1.3012500000e+002	 5.27834e-003
884	 1.3018750000e+002	 5.68320e-003
885	 1.3025000000e+002	 4.45035e-003
886	 1.3031250000e+002	 4.49717e-003
887	 1.3037500000e+002	 7.51103e-003
888	 1.3043750000e+002	 5.85521e-003
889	 1.3050000000e+002	 3.71811e-003
890	 1.3056250000e+002	 2.69440e-003
891	 1.3062500000e+002	 2.80694e-003
892	 1.3068750000e+002	 2.01433e-003
893	 1.3075000000e+002	 1.95152e-003
894	 1.3081250000e+002	 2.86388e-003
895	 1.3087500000e+002	 3.64544e-003
896	 1.3093750000e+002	 4.85387e-003
897	 1.3100000000e+002	 6.18448e-003
898	 1.3106250000e+002	 4.11322e-003
899	 1.3112500000e+002	 4.21199e-003
900	 1.3118750000e+002	 2.67781e-003
901	 1.3125000000e+002	 2.78924e-003
902	 1.3131250000e+002	 3.00803e-003
903	 1.3137500000e+002	 2.97093e-003
904	 1.3143750000e+002	 3.23564e-003
905	 1.3150000000e+002	 4.51058e-003
906	 1.3156250000e+002	 5.72399e-003
907	 1.3162500000e+002	 5.95807e-003
908	 1.3168750000e+002	 4.42398e-003
909	 1.3175000000e+002	 2.82126e-003
910	 1.3181250000e+002	 3.57806e-003
911	 1.3187500000e+002	 2.40693e-003
912	 1.3193750000e+002	 2.55269e-003
913	 1.3200000000e+002	 6.65435e-003
914	 1.3206250000e+002	 6.27125e-003
915	 1.3212500000e+002	 6.50257e-003
916	 1.3218750000e+002	 8.63559e-003
917	 1.3225000000e+002	 4.84147e-003
918	 1.3231250000e+002	 4.83740e-003
919	 1.3237500000e+002	 5.38508e-003
920	 1.3243750000e+002	 8.14425e-003
921	 1.3250000000e+002	 7.85671e-003
922	 1.3256250000e+002	 2.25606e-003
923	 1.3262500000e+002	 1.14065e-003
924	 1.3268750000e+002	 1.77389e-003
925	 1.3275000000e+002	 3.57834e-003
926	 1.3281250000e+002	 3.63323e-003
927	 1.3287500000e+002	 4.39171e-003
928	 1.3293750000e+002	 6.20468e-003
929	 1.3300000000e+002	 4.42891e-003
930	 1.3306250000e+002	 3.17506e-003
931	 1.3312500000e+002	 6.27869e-003
932	 1.3318750000e+002	 5.95208e-003
933	 1.3325000000e+002	 7.14915e-003
934	 1.3331250000e+002	 4.18003e-003
935	 1.3337500000e+002	 3.66799e-003
936	 1.3343750000e+002	 4.47424e-003
937	 1.3350000000e+002	 2.98813e-003
938	 1.3356250000e+002	 4.32864e-003
939	 1.3362500000e+002	 4.09562e-003
940	 1.3368750000e+002	 5.03741e-003
941	 1.3375000000e+002	 7.98407e-003
942	 1.3381250000e+002	 9.52692e-003
943	 1.3387500000e+002	 6.66684e-003
944	 1.3393750000e+002	 3.23594e-003
945	 1.3400000000e+002	 2.70696e-003
946	 1.3406250000e+002	 3.29200e-003
947	 1.3412500000e+002	 5.11216e-003
948	 1.3418750000e+002	 3.84557e-003
949	 1.3425000000e+002	 7.17071e-003
950	 1.3431250000e+002	 6.02371e-003
951	 1.3437500000e+002	 8.00632e-003
952	 1.3443750000e+002	 1.00280e-002
953	 1.3450000000e+002	 3.79484e-003
954	 1.3456250000e+002	 2.56592e-003
955	 1.3462500000e+002	 5.07329e-003
956	 1.3468750000e+002	 9.25988e-003
957	 1.3475000000e+002	 6.43067e-003
958	 1.3481250000e+002	 3.53474e-003
959	 1.3487500000e+002	 4.55179e-003
960	 1.3493750000e+002	 4.90275e-003
961	 1.3500000000e+002	 4.63522e-003
962	 1.3506250000e+002	 3.82589e-003
963	 1.3512500000e+002	 5.63611e-003
964	 1.3518750000e+002	 4.77826e-003
965	 1.3525000000e+002	 4.08183e-003
966	 1.3531250000e+002	 4.52254e-003
967	 1.3537500000e+002	 6.63851e-003
968	 1.3543750000e+002	 1.23075e-002
969	 1.3550000000e+002	 6.65513e-003
970	 1.3556250000e+002	 3.51397e-003
971	 1.3562500000e+002	 3.18052e-003
972	 1.3568750000e+002	 5.49475e-003
973	 1.3575000000e+002	 5.22262e-003
974	 1.3581250000e+002	 5.32360e-003
975	 1.3587500000e+002	 5.24613e-003
976	 1.3593750000e+002	 3.00700e-003
977	 1.3600000000e+002	 2.87485e-003
978	 1.3606250000e+002	 3.26190e-003
979	 1.3612500000e+002	 5.20826e-003
980	 1.3618750000e+002	 9.04249e-003
981	 1.3625000000e+002	 7.07095e-003
982	 1.3631250000e+002	 3.03463e-003
983	 1.3637500000e+002	 3.03636e-003
984	 1.3643750000e+002	 5.63625e-003
985	 1.3650000000e+002	 5.18228e-003
986	 1.3656250000e+002	 4.26002e-003
987	 1.3662500000e+002	 3.45648e-003
988	 1.3668750000e+002	 3.97909e-003
989	 1.3675000000e+002	 4.25647e-003
990	 1.3681250000e+002	 3.58051e-003
991	 1.3687500000e+002	 6.00934e-003
992	 1.3693750000e+002	 7.02527e-003
993	 1.3700000000e+002	 1.01994e-002
994	 1.3706250000e+002	 7.46900e-003
995	 1.3712500000e+002	 9.15643e-003
996	 1.3718750000e+002	 6.12599e-003
997	 1.3725000000e+002	 4.30165e-003
998	 1.3731250000e+002	 7.73627e-003
999	 1.3737500000e+002	 9.69932e-003
1000	 1.3743750000e+002	 5.09698e-003
1001	 1.3750000000e+002	 4.40664e-003
1002	 1.3756250000e+002	 5.79297e-003
1003	 1.3762500000e+002	 8.92491e-003
1004	 1.3768750000e+002	 1.13266e-002
1005	 1.3775000000e+002	 7.95941e-003
1006	 1.3781250000e+002	 4.88490e-003
1007	 1.3787500000e+002	 7.08073e-003
1008	 1.3793750000e+002	 4.75621e-003
1009	 1.3800000000e+002	 4.56555e-003
1010	 1.3806250000e+002	 8.38410e-003
1011	 1.3812500000e+002	 1.13224e-002
1012	 1.3818750000e+002	 1.14966e-002
1013	 1.3825000000e+002	 6.66395e-003
1014	 1.3831250000e+002	 3.28151e-003
1015	 1.3837500000e+002	 2.58014e-003
1016	 1.3843750000e+002	 4.55168e-003
1017	 1.3850000000e+002	 1.00431e-002
1018	 1.3856250000e+002	 8.52380e-003
1019	 1.3862500000e+002	 9.56132e-003
1020	 1.3868750000e+002	 1.07721e-002
1021	 1.3875000000e+002	 7.87592e-003
1022	 1.3881250000e+002	 7.56455e-003
1023	 1.3887500000e+002	 8.54609e-003
1024	 1.3893750000e+002	 6.82032e-003
1025	 1.3900000000e+002	 1.20774e-002
1026	 1.3906250000e+002	 1.49630e-002
1027	 1.3912500000e+002	 5.27056e-003
1028	 1.3918750000e+002	 6.66958e-003
1029	 1.3925000000e+002	 1.39689e-002
1030	 1.3931250000e+002	 1.64510e-002
1031	 1.3937500000e+002	 1.12015e-002
1032	 1.3943750000e+002	 1.05157e-002
1033	 1.3950000000e+002	 7.23851e-003
1034	 1.3956250000e+002	 5.15059e-003
1035	 1.3962500000e+002	 2.72116e-003
1036	 1.3968750000e+002	 6.10763e-003
1037	 1.3975000000e+002	 8.69478e-003
1038	 1.3981250000e+002	 4.98321e-003
1039	 1.3987500000e+002	 4.72430e-003
1040	 1.3993750000e+002	 5.39612e-003
1041	 1.4000000000e+002	 9.02259e-003
1042	 1.4006250000e+002	 1.07835e-002
1043	 1.4012500000e+002	 8.12550e-003
1044	 1.4018750000e+002	 5.55886e-003
1045	 1.4025000000e+002	 6.04877e-003
1046	 1.4031250000e+002	 9.54510e-003
1047	 1.4037500000e+002	 1.14168e-002
1048	 1.4043750000e+002	 5.34431e-003
1049	 1.4050000000e+002	 4.30608e-003
1050	 1.4056250000e+002	 5.46899e-003
1051	 1.4062500000e+002	 1.12117e-002
1052	 1.4068750000e+002	 1.15582e-002
1053	 1.4075000000e+002	 1.37249e-002
1054	 1.4081250000e+002	 1.30733e-002
1055	 1.4087500000e+002	 9.42507e-003
1056	 1.4093750000e+002	 8.05347e-003
1057	 1.4100000000e+002	 8.18093e-003
1058	 1.4106250000e+002	 8.81456e-003
1059	 1.4112500000e+002	 4.58605e-003
1060	 1.4118750000e+002	 3.94112e-003
1061	 1.4125000000e+002	 4.82491e-003
1062	 1.4131250000e+002	 6.14617e-003
1063	 1.4137500000e+002	 7.40848e-003
1064	 1.4143750000e+002	 6.29842e-003
1065	 1.4150000000e+002	 5.52723e-003
1066	 1.4156250000e+002	 6.81724e-003
1067	 1.4162500000e+002	 7.31704e-003
1068	 1.4168750000e+002	 8.65312e-003
1069	 1.4175000000e+002	 6.18351e-003
1070	 1.4181250000e+002	 8.57328e-003
1071	 1.4187500000e+002	 1.60880e-002
1072	 1.4193750000e+002	 1.13866e-002
1073	 1.4200000000e+002	 6.15749e-003
1074	 1.4206250000e+002	 6.28633e-003
1075	 1.4212500000e+002	 1.08282e-002
1076	 1.4218750000e+002	 7.78542e-003
1077	 1.4225000000e+002	 7.00437e-003
1078	 1.4231250000e+002	 6.41493e-003
1079	 1.4237500000e+002	 7.10987e-003
1080	 1.4243750000e+002	 3.24985e-003
1081	 1.4250000000e+002	 9.69347e-003
1082	 1.4256250000e+002	 1.58880e-002
1083	 1.4262500000e+002	 5.63428e-003
1084	 1.4268750000e+002	 3.83608e-003
1085	 1.4275000000e+002	 3.27168e-003
1086	 1.4281250000e+002	 2.19555e-003
1087	 1.4287500000e+002	 4.23672e-003
1088	 1.4293750000e+002	 8.17133e-003
1089	 1.4300000000e+002	 1.08102e-002
1090	 1.4306250000e+002	 1.13845e-002
1091	 1.4312500000e+002	 8.50011e-003
1092	 1.4318750000e+002	 6.10697e-003
1093	 1.4325000000e+002	 7.93835e-003
1094	 1.4331250000e+002	 1.36614e-002
1095	 1.4337500000e+002	 7.65103e-003
1096	 1.4343750000e+002	 5.20325e-003
1097	 1.4350000000e+002	 1.01157e-002
1098	 1.4356250000e+002	 1.04834e-002
1099	 1.4362500000e+002	 1.25769e-002
1100	 1.4368750000e+002	 8.96246e-003
1101	 1.4375000000e+002	 1.01579e-002
1102	 1.4381250000e+002	 8.97667e-003
1103	 1.4387500000e+002	 1.34939e-002
1104	 1.4393750000e+002	 1.65785e-002
1105	 1.4400000000e+002	 1.50210e-002
1106	 1.4406250000e+002	 9.62263e-003
1107	 1.4412500000e+002	 7.85163e-003
1108	 1.4418750000e+002	 8.34311e-003
1109	 1.4425000000e+002	 4.83401e-003
1110	 1.4431250000e+002	 7.98065e-003
1111	 1.4437500000e+002	 9.10566e-003
1112	 1.4443750000e+002	 5.45125e-003
1113	 1.4450000000e+002	 3.64386e-003
1114	 1.4456250000e+002	 5.33616e-003
1115	 1.4462500000e+002	 1.00458e-002
1116	 1.4468750000e+002	 6.43011e-003
1117	 1.4475000000e+002	 9.98130e-003
1118	 1.4481250000e+002	 1.19014e-002
1119	 1.4487500000e+002	 7.08775e-003
1120	 1.4493750000e+002	 7.80841e-003
1121	 1.4500000000e+002	 6.93602e-003
1122	 1.4506250000e+002	 5.63360e-003
1123	 1.4512500000e+002	 1.11671e-002
1124	 1.4518750000e+002	 1.14486e-002
1125	 1.4525000000e+002	 8.93025e-003
1126	 1.4531250000e+002	 6.46562e-003
1127	 1.4537500000e+002	 3.13480e-003
1128	 1.4543750000e+002	 6.20441e-003
1129	 1.4550000000e+002	 1.40920e-002
1130	 1.4556250000e+002	 2.43222e-002
1131	 1.4562500000e+002	 2.18256e-002
1132	 1.4568750000e+002	 1.54048e-002
1133	 1.4575000000e+002	 1.35422e-002
1134	 1.4581250000e+002	 2.67472e-002
1135	 1.4587500000e+002	 2.03278e-002
1136	 1.4593750000e+002	 1.53059e-002
1137	 1.4600000000e+002	 1.71543e-002
1138	 1.4606250000e+002	 1.04853e-002
1139	 1.4612500000e+002	 1.09817e-002
1140	 1.4618750000e+002	 8.86663e-003
1141	 1.4625000000e+002	 9.52821e-003
1142	 1.4631250000e+002	 1.91216e-002
1143	 1.4637500000e+002	 1.68623e-002
1144	 1.4643750000e+002	 1.22815e-002
1145	 1.4650000000e+002	 2.60223e-002
1146	 1.4656250000e+002	 3.16223e-002
1147	 1.4662500000e+002	 2.16442e-002
1148	 1.4668750000e+002	 1.04796e-002
1149	 1.4675000000e+002	 1.31780e-002
1150	 1.4681250000e+002	 1.40336e-002
1151	 1.4687500000e+002	 1.91003e-002
1152	 1.4693750000e+002	 1.45050e-002
1153	 1.4700000000e+002	 8.06300e-003
1154	 1.4706250000e+002	 1.58379e-002
1155	 1.4712500000e+002	 1.25998e-002
1156	 1.4718750000e+002	 9.27385e-003
1157	 1.4725000000e+002	 1.38877e-002
1158	 1.4731250000e+002	 1.63115e-002
1159	 1.4737500000e+002	 1.56354e-002
1160	 1.4743750000e+002	 1.89201e-002
1161	 1.4750000000e+002	 2.81723e-002
1162	 1.4756250000e+002	 2.18113e-002
1163	 1.4762500000e+002	 3.76443e-002
1164	 1.4768750000e+002	 2.99413e-002
1165	 1.4775000000e+002	 1.30836e-002
1166	 1.4781250000e+002	 9.93063e-003
1167	 1.4787500000e+002	 1.36455e-002
1168	 1.4793750000e+002	 1.60426e-002
1169	 1.4800000000e+002	 8.20744e-003
1170	 1.4806250000e+002	 1.91182e-002
1171	 1.4812500000e+002	 1.38991e-002
1172	 1.4818750000e+002	 1.18380e-002
1173	 1.4825000000e+002	 1.75119e-002
1174	 1.4831250000e+002	 1.09773e-002
1175	 1.4837500000e+002	 9.59553e-003
1176	 1.4843750000e+002	 1.17420e-002
1177	 1.4850000000e+002	 1.08552e-002
1178	 1.4856250000e+002	 1.45532e-002
1179	 1.4862500000e+002	 1.37533e-002
1180	 1.4868750000e+002	 5.63053e-003
1181	 1.4875000000e+002	 1.16750e-002
1182	 1.4881250000e+002	 1.38912e-002
1183	 1.4887500000e+002	 2.21711e-002
1184	 1.4893750000e+002	 3.35510e-002
1185	 1.4900000000e+002	 3.14415e-002
1186	 1.4906250000e+002	 2.35228e-002
1187	 1.4912500000e+002	 2.42800e-002
1188	 1.4918750000e+002	 2.27866e-002
1189	 1.4925000000e+002	 1.81375e-002
1190	 1.4931250000e+002	 2.54263e-002
1191	 1.4937500000e+002	 2.52086e-002
1192	 1.4943750000e+002	 2.33500e-002
1193	 1.4950000000e+002	 2.12108e-002
1194	 1.4956250000e+002	 2.27424e-002
1195	 1.4962500000e+002	 1.83332e-002
1196	 1.4968750000e+002	 1.17496e-002
1197	 1.4975000000e+002	 1.15273e-002
1198	 1.4981250000e+002	 2.79532e-002
1199	 1.4987500000e+002	 2.35454e-002
1200	 1.4993750000e+002	 1.11568e-002
1201	 1.5000000000e+002	 1.55912e-002
1202	 1.5006250000e+002	 1.75510e-002
1203	 1.5012500000e+002	 1.37775e-002
1204	 1.5018750000e+002	 9.80533e-003
1205	 1.5025000000e+002	 1.93929e-002
1206	 1.5031250000e+002	 1.40842e-002
1207	 1.5037500000e+002	 9.07747e-003
1208	 1.5043750000e+002	 1.55754e-002
1209	 1.5050000000e+002	 2.98394e-002
1210	 1.5056250000e+002	 2.70650e-002
1211	 1.5062500000e+002	 2.44027e-002
1212	 1.5068750000e+002	 1.92062e-002
1213	 1.5075000000e+002	 2.12539e-002
1214	 1.5081250000e+002	 2.52701e-002
1215	 1.5087500000e+002	 3.62963e-002
1216	 1.5093750000e+002	 3.40372e-002
1217	 1.5100000000e+002	 2.68858e-002
1218	 1.5106250000e+002	 3.86260e-002
1219	 1.5112500000e+002	 3.26590e-002
1220	 1.5118750000e+002	 2.60763e-002
1221	 1.5125000000e+002	 1.71485e-002
1222	 1.5131250000e+002	 2.47490e-002
1223	 1.5137500000e+002	 2.86019e-002
1224	 1.5143750000e+002	 2.35936e-002
1225	 1.5150000000e+002	 3.09862e-002
1226	 1.5156250000e+002	 3.75772e-002
1227	 1.5162500000e+002	 3.03219e-002
1228	 1.5168750000e+002	 4.20048e-002
1229	 1.5175000000e+002	 3.18226e-002
1230	 1.5181250000e+002	 3.82730e-002
1231	 1.5187500000e+002	 2.27657e-002
1232	 1.5193750000e+002	 1.87702e-002
1233	 1.5200000000e+002	 1.60772e-002
1234	 1.5206250000e+002	 1.86216e-002
1235	 1.5212500000e+002	 2.65587e-002
1236	 1.5218750000e+002	 3.11670e-002
1237	 1.5225000000e+002	 3.98992e-002
1238	 1.5231250000e+002	 3.04538e-002
1239	 1.5237500000e+002	 2.75123e-002
1240	 1.5243750000e+002	 2.22221e-002
1241	 1.5250000000e+002	 2.39800e-002
1242	 1.5256250000e+002	 1.78041e-002
1243	 1.5262500000e+002	 2.21342e-002
1244	 1.5268750000e+002	 1.84459e-002
1245	 1.5275000000e+002	 3.02709e-002
1246	 1.5281250000e+002	 4.41048e-002
1247	 1.5287500000e+002	 6.42955e-002
1248	 1.5293750000e+002	 5.95125e-002
1249	 1.5300000000e+002	 6.65472e-002
1250	 1.5306250000e+002	 4.39562e-002
1251	 1.5312500000e+002	 2.88271e-002
1252	 1.5318750000e+002	 3.23266e-002
1253	 1.5325000000e+002	 3.44384e-002
1254	 1.5331250000e+002	 5.21625e-002
1255	 1.5337500000e+002	 3.98991e-002
1256	 1.5343750000e+002	 3.12356e-002
1257	 1.5350000000e+002	 1.62868e-002
1258	 1.5356250000e+002	 2.14450e-002
1259	 1.5362500000e+002	 3.51226e-002
1260	 1.5368750000e+002	 1.60480e-002
1261	 1.5375000000e+002	 3.20122e-002
1262	 1.5381250000e+002	 5.30677e-002
1263	 1.5387500000e+002	 6.66189e-002
1264	 1.5393750000e+002	 6.69968e-002
1265	 1.5400000000e+002	 5.25687e-002
1266	 1.5406250000e+002	 3.49258e-002
1267	 1.5412500000e+002	 2.90738e-002
1268	 1.5418750000e+002	 1.84732e-002
1269	 1.5425000000e+002	 3.23516e-002
1270	 1.5431250000e+002	 5.20056e-002
1271	 1.5437500000e+002	 7.20482e-002
1272	 1.5443750000e+002	 9.82845e-002
1273	 1.5450000000e+002	 4.84152e-002
1274	 1.5456250000e+002	 5.84143e-002
1275	 1.5462500000e+002	 8.96248e-002
1276	 1.5468750000e+002	 4.80511e-002
1277	 1.5475000000e+002	 1.92888e-002
1278	 1.5481250000e+002	 2.96355e-002
1279	 1.5487500000e+002	 4.26823e-002
1280	 1.5493750000e+002	 4.87134e-002
1281	 1.5500000000e+002	 6.43311e-002
1282	 1.5506250000e+002	 7.94907e-002
1283	 1.5512500000e+002	 8.53931e-002
1284	 1.5518750000e+002	 1.09303e-001
1285	 1.5525000000e+002	 7.42865e-002
1286	 1.5531250000e+002	 8.22875e-002
1287	 1.5537500000e+002	 1.67779e-001
1288	 1.5543750000e+002	 1.57584e-001
1289	 1.5550000000e+002	 1.09247e-001
1290	 1.5556250000e+002	 1.72897e-001
1291	 1.5562500000e+002	 1.22848e-001
1292	 1.5568750000e+002	 9.70003e-002
1293	 1.5575000000e+002	 9.98505e-002
1294	 1.5581250000e+002	 1.93026e-001
1295	 1.5587500000e+002	 1.35258e-001
1296	 1.5593750000e+002	 3.47695e-002
1297	 1.5600000000e+002	 4.51142e-002
1298	 1.5606250000e+002	 9.13006e-002
1299	 1.5612500000e+002	 1.28274e-001
1300	 1.5618750000e+002	 1.16989e-001
1301	 1.5625000000e+002	 8.94970e-002
1302	 1.5631250000e+002	 5.88680e-002
1303	 1.5637500000e+002	 1.09015e-001
1304	 1.5643750000e+002	 9.61265e-002
1305	 1.5650000000e+002	 3.25992e-002
1306	 1.5656250000e+002	 2.33456e-002
1307	 1.5662500000e+002	 6.46482e-002
1308	 1.5668750000e+002	 1.07182e-001
1309	 1.5675000000e+002	 1.35898e-001
1310	 1.5681250000e+002	 1.09488e-001
1311	 1.5687500000e+002	 8.10769e-002
1312	 1.5693750000e+002	 1.22037e-001
1313	 1.5700000000e+002	 1.73419e-001
1314	 1.5706250000e+002	 8.65696e-002
1315	 1.5712500000e+002	 6.83346e-002
1316	 1.5718750000e+002	 8.04715e-002
1317	 1.5725000000e+002	 6.50418e-002
1318	 1.5731250000e+002	 5.64760e-002
1319	 1.5737500000e+002	 5.43379e-002
1320	 1.5743750000e+002	 8.13454e-002
1321	 1.5750000000e+002	 1.22090e-001
1322	 1.5756250000e+002	 1.45304e-001
1323	 1.5762500000e+002	 1.36462e-001
1324	 1.5768750000e+002	 1.15734e-001
1325	 1.5775000000e+002	 1.04795e-001
1326	 1.5781250000e+002	 1.23418e-001
1327	 1.5787500000e+002	 1.55053e-001
1328	 1.5793750000e+002	 1.79954e-001
1329	 1.5800000000e+002	 1.39269e-001
1330	 1.5806250000e+002	 8.33076e-002
1331	 1.5812500000e+002	 8.91050e-002
1332	 1.5818750000e+002	 1.63939e-001
1333	 1.5825000000e+002	 1.44814e-001
1334	 1.5831250000e+002	 1.89490e-001
1335	 1.5837500000e+002	 1.78096e-001
1336	 1.5843750000e+002	 9.18010e-002
1337	 1.5850000000e+002	 1.49671e-001
1338	 1.5856250000e+002	 1.63708e-001
1339	 1.5862500000e+002	 7.93555e-002
1340	 1.5868750000e+002	 1.16700e-001
1341	 1.5875000000e+002	 2.06494e-001
1342	 1.5881250000e+002	 2.58754e-001
1343	 1.5887500000e+002	 2.14633e-001
1344	 1.5893750000e+002	 1.93966e-001
1345	 1.5900000000e+002	 3.08415e-001
1346	 1.5906250000e+002	 3.92045e-001
1347	 1.5912500000e+002	 2.69064e-001
1348	 1.5918750000e+002	 1.95328e-001
1349	 1.5925000000e+002	 1.84579e-001
1350	 1.5931250000e+002	 2.69508e-001
1351	 1.5937500000e+002	 2.08887e-001
1352	 1.5943750000e+002	 2.79604e-001
1353	 1.5950000000e+002	 1.91136e-001
1354	 1.5956250000e+002	 1.00809e-001
1355	 1.5962500000e+002	 1.86645e-001
1356	 1.5968750000e+002	 3.58668e-001
1357	 1.5975000000e+002	 2.14176e-001
1358	 1.5981250000e+002	 6.95915e-002
1359	 1.5987500000e+002	 7.58099e-002
1360	 1.5993750000e+002	 1.06851e-001
1361	 1.6000000000e+002	 1.50078e-001
1362	 1.6006250000e+002	 2.35852e-001
1363	 1.6012500000e+002	 5.47655e-001
1364	 1.6018750000e+002	 5.72742e-001
1365	 1.6025000000e+002	 3.39000e-001
1366	 1.6031250000e+002	 4.05053e-001
1367	 1.6037500000e+002	 5.12185e-001
1368	 1.6043750000e+002	 2.73196e-001
1369	 1.6050000000e+002	 2.52208e-001
1370	 1.6056250000e+002	 2.77322e-001
1371	 1.6062500000e+002	 2.66814e-001
1372	 1.6068750000e+002	 2.21280e-001
1373	 1.6075000000e+002	 2.28718e-001
1374	 1.6081250000e+002	 4.12948e-001
1375	 1.6087500000e+002	 4.32419e-001
1376	 1.6093750000e+002	 4.45867e-001
1377	 1.6100000000e+002	 4.90641e-001
1378	 1.6106250000e+002	 2.04614e-001
1379	 1.6112500000e+002	 2.98126e-001
1380	 1.6118750000e+002	 3.79012e-001
1381	 1.6125000000e+002	 1.89648e-001
1382	 1.6131250000e+002	 1.35389e-001
1383	 1.6137500000e+002	 3.42431e-001
1384	 1.6143750000e+002	 7.00205e-001
1385	 1.6150000000e+002	 5.60889e-001
1386	 1.6156250000e+002	 2.39552e-001
1387	 1.6162500000e+002	 2.68205e-001
1388	 1.6168750000e+002	 3.12044e-001
1389	 1.6175000000e+002	 1.84815e-001
1390	 1.6181250000e+002	 1.53969e-001
1391	 1.6187500000e+002	 3.39242e-001
1392	 1.6193750000e+002	 5.09180e-001
1393	 1.6200000000e+002	 4.02441e-001
1394	 1.6206250000e+002	 1.84984e-001
1395	 1.6212500000e+002	 2.95191e-001
1396	 1.6218750000e+002	 2.72178e-001
1397	 1.6225000000e+002	 5.11873e-001
1398	 1.6231250000e+002	 6.07637e-001
1399	 1.6237500000e+002	 3.90703e-001
1400	 1.6243750000e+002	 2.53626e-001
1401	 1.6250000000e+002	 1.96384e-001
1402	 1.6256250000e+002	 3.63030e-001
1403	 1.6262500000e+002	 4.36263e-001
1404	 1.6268750000e+002	 2.23603e-001
1405	 1.6275000000e+002	 1.69758e-001
1406	 1.6281250000e+002	 1.50743e-001
1407	 1.6287500000e+002	 8.51228e-002
1408	 1.6293750000e+002	 1.87618e-001
1409	 1.6300000000e+002	 3.20283e-001
1410	 1.6306250000e+002	 3.13273e-001
1411	 1.6312500000e+002	 2.75541e-001
1412	 1.6318750000e+002	 4.24757e-001
1413	 1.6325000000e+002	 1.99463e-001
1414	 1.6331250000e+002	 2.36543e-001
1415	 1.6337500000e+002	 2.96414e-001
1416	 1.6343750000e+002	 2.63524e-001
1417	 1.6350000000e+002	 1.68589e-001
1418	 1.6356250000e+002	 9.07939e-002
1419	 1.6362500000e+002	 1.07149e-001
1420	 1.6368750000e+002	 1.87943e-001
1421	 1.6375000000e+002	 2.64455e-001
1422	 1.6381250000e+002	 3.32738e-001
1423	 1.6387500000e+002	 2.19217e-001
1424	 1.6393750000e+002	 1.47126e-001
1425	 1.6400000000e+002	 2.51205e-001
1426	 1.6406250000e+002	 3.05342e-001
1427	 1.6412500000e+002	 2.48220e-001
1428	 1.6418750000e+002	 1.34777e-001
1429	 1.6425000000e+002	 1.76200e-001
1430	 1.6431250000e+002	 2.15982e-001
1431	 1.6437500000e+002	 1.35074e-001
1432	 1.6443750000e+002	 1.09055e-001
1433	 1.6450000000e+002	 1.23313e-001
1434	 1.6456250000e+002	 1.24923e-001
1435	 1.6462500000e+002	 2.30192e-001
1436	 1.6468750000e+002	 2.12491e-001
1437	 1.6475000000e+002	 1.18099e-001
1438	 1.6481250000e+002	 1.05976e-001
1439	 1.6487500000e+002	 1.11798e-001
1440	 1.6493750000e+002	 1.03928e-001
1441	 1.6500000000e+002	 9.59344e-002
1442	 1.6506250000e+002	 1.36820e-001
1443	 1.6512500000e+002	 1.53393e-001
1444	 1.6518750000e+002	 1.14739e-001
1445	 1.6525000000e+002	 9.88296e-002
1446	 1.6531250000e+002	 1.31263e-001
1447	 1.6537500000e+002	 2.03355e-001
1448	 1.6543750000e+002	 1.91559e-001
1449	 1.6550000000e+002	 1.21393e-001
1450	 1.6556250000e+002	 7.01290e-002
1451	 1.6562500000e+002	 9.15146e-002
1452	 1.6568750000e+002	 6.40577e-002
1453	 1.6575000000e+002	 4.27169e-002
1454	 1.6581250000e+002	 5.75174e-002
1455	 1.6587500000e+002	 8.37296e-002
1456	 1.6593750000e+002	 3.89583e-002
1457	 1.6600000000e+002	 5.85344e-002
1458	 1.6606250000e+002	 7.40881e-002
1459	 1.6612500000e+002	 1.10563e-001
1460	 1.6618750000e+002	 7.98575e-002
1461	 1.6625000000e+002	 1.33014e-001
1462	 1.6631250000e+002	 1.99833e-001
1463	 1.6637500000e+002	 1.05427e-001
1464	 1.6643750000e+002	 9.86472e-002
1465	 1.6650000000e+002	 6.62086e-002
1466	 1.6656250000e+002	 5.16858e-002
1467	 1.6662500000e+002	 6.85433e-002
1468	 1.6668750000e+002	 6.90627e-002
1469	 1.6675000000e+002	 7.52867e-002
1470	 1.6681250000e+002	 7.23396e-002
1471	 1.6687500000e+002	 8.07418e-002
1472	 1.6693750000e+002	 5.78779e-002
1473	 1.6700000000e+002	 7.43573e-002
1474	 1.6706250000e+002	 6.47167e-002
1475	 1.6712500000e+002	 6.54344e-002
1476	 1.6718750000e+002	 7.42944e-002
1477	 1.6725000000e+002	 6.04381e-002
1478	 1.6731250000e+002	 6.14742e-002
1479	 1.6737500000e+002	 5.91533e-002
1480	 1.6743750000e+002	 4.55536e-002
1481	 1.6750000000e+002	 6.71045e-002
1482	 1.6756250000e+002	 4.98014e-002
1483	 1.6762500000e+002	 2.60706e-002
1484	 1.6768750000e+002	 3.40217e-002
1485	 1.6775000000e+002	 5.22813e-002
1486	 1.6781250000e+002	 4.75073e-002
1487	 1.6787500000e+002	 5.12202e-002
1488	 1.6793750000e+002	 5.97683e-002
1489	 1.6800000000e+002	 5.14448e-002
1490	 1.6806250000e+002	 6.89338e-002
1491	 1.6812500000e+002	 6.29870e-002
1492	 1.6818750000e+002	 7.56915e-002
1493	 1.6825000000e+002	 7.16540e-002
1494	 1.6831250000e+002	 4.31928e-002
1495	 1.6837500000e+002	 4.57353e-002
1496	 1.6843750000e+002	 5.17218e-002
1497	 1.6850000000e+002	 7.79792e-002
1498	 1.6856250000e+002	 5.10754e-002
1499	 1.6862500000e+002	 6.36588e-002
1500	 1.6868750000e+002	 4.73295e-002
1501	 1.6875000000e+002	 4.15918e-002
1502	 1.6881250000e+002	 5.16667e-002
1503	 1.6887500000e+002	 6.38415e-002
1504	 1.6893750000e+002	 8.94122e-002
1505	 1.6900000000e+002	 5.55073e-002
1506	 1.6906250000e+002	 3.88330e-002
1507	 1.6912500000e+002	 4.79316e-002
1508	 1.6918750000e+002	 4.68714e-002
1509	 1.6925000000e+002	 8.31434e-002
1510	 1.6931250000e+002	 1.11897e-001
1511	 1.6937500000e+002	 6.60546e-002
1512	 1.6943750000e+002	 3.10055e-002
1513	 1.6950000000e+002	 4.75136e-002
1514	 1.6956250000e+002	 5.53894e-002
1515	 1.6962500000e+002	 5.19370e-002
1516	 1.6968750000e+002	 3.12635e-002
1517	 1.6975000000e+002	 3.43941e-002
1518	 1.6981250000e+002	 5.94166e-002
1519	 1.6987500000e+002	 1.08390e-001
1520	 1.6993750000e+002	 6.92265e-002
1521	 1.7000000000e+002	 4.26628e-002
1522	 1.7006250000e+002	 2.98568e-002
1523	 1.7012500000e+002	 4.10584e-002
1524	 1.7018750000e+002	 3.54731e-002
1525	 1.7025000000e+002	 3.02530e-002
1526	 1.7031250000e+002	 2.04250e-002
1527	 1.7037500000e+002	 1.59117e-002
1528	 1.7043750000e+002	 2.75443e-002
1529	 1.7050000000e+002	 3.84952e-002
1530	 1.7056250000e+002	 4.00200e-002
1531	 1.7062500000e+002	 5.91570e-002
1532	 1.7068750000e+002	 4.29188e-002
1533	 1.7075000000e+002	 3.05432e-002
1534	 1.7081250000e+002	 2.24336e-002
1535	 1.7087500000e+002	 1.81786e-002
1536	 1.7093750000e+002	 2.57052e-002
1537	 1.7100000000e+002	 2.08331e-002
1538	 1.7106250000e+002	 2.41469e-002
1539	 1.7112500000e+002	 4.47668e-002
1540	 1.7118750000e+002	 6.24360e-002
1541	 1.7125000000e+002	 6.09188e-002
1542	 1.7131250000e+002	 3.37504e-002
1543	 1.7137500000e+002	 3.38300e-002
1544	 1.7143750000e+002	 3.19698e-002
1545	 1.7150000000e+002	 1.33961e-002
1546	 1.7156250000e+002	 1.43886e-002
1547	 1.7162500000e+002	 2.41489e-002
1548	 1.7168750000e+002	 3.59452e-002
1549	 1.7175000000e+002	 3.24311e-002
1550	 1.7181250000e+002	 3.63504e-002
1551	 1.7187500000e+002	 3.65371e-002
1552	 1.7193750000e+002	 4.07848e-002
1553	 1.7200000000e+002	 4.84553e-002
1554	 1.7206250000e+002	 3.36613e-002
1555	 1.7212500000e+002	 2.80633e-002
1556	 1.7218750000e+002	 4.12699e-002
1557	 1.7225000000e+002	 5.56957e-002
1558	 1.7231250000e+002	 3.20910e-002
1559	 1.7237500000e+002	 3.60783e-002
1560	 1.7243750000e+002	 2.49330e-002
1561	 1.7250000000e+002	 1.25467e-002
1562	 1.7256250000e+002	 1.98255e-002
1563	 1.7262500000e+002	 2.94869e-002
1564	 1.7268750000e+002	 2.52160e-002
1565	 1.7275000000e+002	 3.37632e-002
1566	 1.7281250000e+002	 4.90698e-002
1567	 1.7287500000e+002	 3.69332e-002
1568	 1.7293750000e+002	 2.21434e-002
1569	 1.7300000000e+002	 2.43947e-002
1570	 1.7306250000e+002	 2.39314e-002
1571	 1.7312500000e+002	 2.71963e-002
1572	 1.7318750000e+002	 2.42864e-002
1573	 1.7325000000e+002	 4.51282e-002
1574	 1.7331250000e+002	 3.55748e-002
1575	 1.7337500000e+002	 2.57504e-002
1576	 1.7343750000e+002	 2.23057e-002
1577	 1.7350000000e+002	 1.10350e-002
1578	 1.7356250000e+002	 1.26702e-002
1579	 1.7362500000e+002	 1.97749e-002
1580	 1.7368750000e+002	 2.77947e-002
1581	 1.7375000000e+002	 2.46460e-002
1582	 1.7381250000e+002	 2.33806e-002
1583	 1.7387500000e+002	 1.72571e-002
1584	 1.7393750000e+002	 1.20038e-002
1585	 1.7400000000e+002	 1.36022e-002
1586	 1.7406250000e+002	 1.00670e-002
1587	 1.7412500000e+002	 8.87530e-003
1588	 1.7418750000e+002	 2.48948e-002
1589	 1.7425000000e+002	 3.00758e-002
1590	 1.7431250000e+002	 2.37443e-002
1591	 1.7437500000e+002	 2.81398e-002
1592	 1.7443750000e+002	 2.31437e-002
1593	 1.7450000000e+002	 2.76733e-002
1594	 1.7456250000e+002	 3.06384e-002
1595	 1.7462500000e+002	 1.46268e-002
1596	 1.7468750000e+002	 1.95983e-002
1597	 1.7475000000e+002	 3.64062e-002
1598	 1.7481250000e+002	 4.95068e-002
1599	 1.7487500000e+002	 4.21925e-002
1600	 1.7493750000e+002	 1.41212e-002
1601	 1.7500000000e+002	 1.59697e-002
1602	 1.7506250000e+002	 2.58577e-002
1603	 1.7512500000e+002	 2.96491e-002
1604	 1.7518750000e+002	 2.25373e-002
1605	 1.7525000000e+002	 3.54870e-002
1606	 1.7531250000e+002	 2.70852e-002
1607	 1.7537500000e+002	 9.97377e-003
1608	 1.7543750000e+002	 1.04147e-002
1609	 1.7550000000e+002	 1.94423e-002
1610	 1.7556250000e+002	 4.10030e-002
1611	 1.7562500000e+002	 2.76962e-002
1612	 1.7568750000e+002	 1.42187e-002
1613	 1.7575000000e+002	 2.07895e-002
1614	 1.7581250000e+002	 1.84329e-002
1615	 1.7587500000e+002	 2.35277e-002
1616	 1.7593750000e+002	 1.87274e-002
1617	 1.7600000000e+002	 1.20007e-002
1618	 1.7606250000e+002	 2.07157e-002
1619	 1.7612500000e+002	 1.51482e-002
1620	 1.7618750000e+002	 8.98415e-003
1621	 1.7625000000e+002	 1.55437e-002
1622	 1.7631250000e+002	 2.08805e-002
1623	 1.7637500000e+002	 1.88582e-002
1624	 1.7643750000e+002	 2.83597e-002
1625	 1.7650000000e+002	 3.60609e-002
1626	 1.7656250000e+002	 2.54931e-002
1627	 1.7662500000e+002	 9.57601e-003
1628	 1.7668750000e+002	 9.82998e-003
1629	 1.7675000000e+002	 1.28447e-002
1630	 1.7681250000e+002	 1.89716e-002
1631	 1.7687500000e+002	 1.04406e-002
1632	 1.7693750000e+002	 1.18690e-002
1633	 1.7700000000e+002	 2.22829e-002
1634	 1.7706250000e+002	 1.92989e-002
1635	 1.7712500000e+002	 1.35630e-002
1636	 1.7718750000e+002	 1.46511e-002
1637	 1.7725000000e+002	 1.37074e-002
1638	 1.7731250000e+002	 8.14111e-003
1639	 1.7737500000e+002	 1.08863e-002
1640	 1.7743750000e+002	 1.43467e-002
1641	 1.7750000000e+002	 1.17639e-002
1642	 1.7756250000e+002	 5.12318e-003
1643	 1.7762500000e+002	 6.42430e-003
1644	 1.7768750000e+002	 1.29663e-002
1645	 1.7775000000e+002	 1.78084e-002
1646	 1.7781250000e+002	 1.45444e-002
1647	 1.7787500000e+002	 2.00712e-002
1648	 1.7793750000e+002	 1.36952e-002
1649	 1.7800000000e+002	 1.25419e-002
1650	 1.7806250000e+002	 1.11079e-002
1651	 1.7812500000e+002	 1.64502e-002
1652	 1.7818750000e+002	 1.99283e-002
1653	 1.7825000000e+002	 1.56526e-002
1654	 1.7831250000e+002	 1.39594e-002
1655	 1.7837500000e+002	 2.07813e-002
1656	 1.7843750000e+002	 1.91531e-002
1657	 1.7850000000e+002	 2.14649e-002
1658	 1.7856250000e+002	 9.13884e-003
1659	 1.7862500000e+002	 1.70542e-002
1660	 1.7868750000e+002	 1.23109e-002
1661	 1.7875000000e+002	 1.13262e-002
1662	 1.7881250000e+002	 1.66926e-002
1663	 1.7887500000e+002	 1.46569e-002
1664	 1.7893750000e+002	 1.44009e-002
1665	 1.7900000000e+002	 1.78321e-002
1666	 1.7906250000e+002	 1.28641e-002
1667	 1.7912500000e+002	 1.59303e-002
1668	 1.7918750000e+002	 1.17822e-002
1669	 1.7925000000e+002	 1.99467e-002
1670	 1.7931250000e+002	 1.83127e-002
1671	 1.7937500000e+002	 7.43272e-003
1672	 1.7943750000e+002	 6.77001e-003
1673	 1.7950000000e+002	 1.54667e-002
1674	 1.7956250000e+002	 2.45167e-002
1675	 1.7962500000e+002	 2.12254e-002
1676	 1.7968750000e+002	 9.41083e-003
1677	 1.7975000000e+002	 7.37457e-003
1678	 1.7981250000e+002	 7.67686e-003
1679	 1.7987500000e+002	 1.13679e-002
1680	 1.7993750000e+002	 1.01466e-002
1681	 1.8000000000e+002	 1.04665e-002
1682	 1.8006250000e+002	 1.41006e-002
1683	 1.8012500000e+002	 9.15034e-003
1684	 1.8018750000e+002	 7.56905e-003
1685	 1.8025000000e+002	 1.30611e-002
1686	 1.8031250000e+002	 1.48040e-002
1687	 1.8037500000e+002	 1.86110e-002
1688	 1.8043750000e+002	 3.86031e-002
1689	 1.8050000000e+002	 2.70811e-002
1690	 1.8056250000e+002	 2.05956e-002
1691	 1.8062500000e+002	 2.32092e-002
1692	 1.8068750000e+002	 2.81869e-002
1693	 1.8075000000e+002	 2.56212e-002
1694	 1.8081250000e+002	 1.55208e-002
1695	 1.8087500000e+002	 1.68186e-002
1696	 1.8093750000e+002	 1.69680e-002
1697	 1.8100000000e+002	 1.49390e-002
1698	 1.8106250000e+002	 1.76872e-002
1699	 1.8112500000e+002	 1.65801e-002
1700	 1.8118750000e+002	 6.51455e-003
1701	 1.8125000000e+002	 7.56671e-003
1702	 1.8131250000e+002	 1.45739e-002
1703	 1.8137500000e+002	 1.81755e-002
1704	 1.8143750000e+002	 1.96643e-002
1705	 1.8150000000e+002	 2.84062e-002
1706	 1.8156250000e+002	 2.38325e-002
1707	 1.8162500000e+002	 1.41430e-002
1708	 1.8168750000e+002	 1.54060e-002
1709	 1.8175000000e+002	 2.65007e-002
1710	 1.8181250000e+002	 1.99923e-002
1711	 1.8187500000e+002	 2.61017e-002
1712	 1.8193750000e+002	 3.45292e-002
1713	 1.8200000000e+002	 2.68055e-002
1714	 1.8206250000e+002	 1.98289e-002
1715	 1.8212500000e+002	 2.22853e-002
1716	 1.8218750000e+002	 1.06786e-002
1717	 1.8225000000e+002	 8.92211e-003
1718	 1.8231250000e+002	 1.24364e-002
1719	 1.8237500000e+002	 8.72730e-003
1720	 1.8243750000e+002	 9.65783e-003
1721	 1.8250000000e+002	 1.90655e-002
1722	 1.8256250000e+002	 1.67319e-002
1723	 1.8262500000e+002	 2.15078e-002
1724	 1.8268750000e+002	 1.67491e-002
1725	 1.8275000000e+002	 1.01704e-002
1726	 1.8281250000e+002	 9.34199e-003
1727	 1.8287500000e+002	 9.44496e-003
1728	 1.8293750000e+002	 1.67294e-002
1729	 1.8300000000e+002	 2.09418e-002
1730	 1.8306250000e+002	 1.64817e-002
1731	 1.8312500000e+002	 1.46586e-002
1732	 1.8318750000e+002	 1.75046e-002
1733	 1.8325000000e+002	 2.19380e-002
1734	 1.8331250000e+002	 1.80423e-002
1735	 1.8337500000e+002	 5.63814e-003
1736	 1.8343750000e+002	 1.11787e-002
1737	 1.8350000000e+002	 1.43788e-002
1738	 1.8356250000e+002	 1.96198e-002
1739	 1.8362500000e+002	 1.87026e-002
1740	 1.8368750000e+002	 1.90129e-002
1741	 1.8375000000e+002	 1.43242e-002
1742	 1.8381250000e+002	 1.55315e-002
1743	 1.8387500000e+002	 1.25720e-002
1744	 1.8393750000e+002	 1.02621e-002
1745	 1.8400000000e+002	 1.49181e-002
1746	 1.8406250000e+002	 1.08407e-002
1747	 1.8412500000e+002	 2.02692e-002
1748	 1.8418750000e+002	 2.29262e-002
1749	 1.8425000000e+002	 1.28383e-002
1750	 1.8431250000e+002	 1.54913e-002
1751	 1.8437500000e+002	 1.98301e-002
1752	 1.8443750000e+002	 1.49100e-002
1753	 1.8450000000e+002	 7.16231e-003
1754	 1.8456250000e+002	 9.27626e-003
1755	 1.8462500000e+002	 1.40759e-002
1756	 1.8468750000e+002	 1.09715e-002
1757	 1.8475000000e+002	 9.72362e-003
1758	 1.8481250000e+002	 1.49431e-002
1759	 1.8487500000e+002	 1.32787e-002
1760	 1.8493750000e+002	 5.80994e-003
1761	 1.8500000000e+002	 4.66930e-003
1762	 1.8506250000e+002	 6.27964e-003
1763	 1.8512500000e+002	 3.32292e-003
1764	 1.8518750000e+002	 6.26835e-003
1765	 1.8525000000e+002	 7.94375e-003
1766	 1.8531250000e+002	 1.09825e-002
1767	 1.8537500000e+002	 1.26627e-002
1768	 1.8543750000e+002	 1.29337e-002
1769	 1.8550000000e+002	 1.42748e-002
1770	 1.8556250000e+002	 1.32995e-002
1771	 1.8562500000e+002	 1.46629e-002
1772	 1.8568750000e+002	 1.07712e-002
1773	 1.8575000000e+002	 1.24105e-002
1774	 1.8581250000e+002	 1.21220e-002
1775	 1.8587500000e+002	 8.47256e-003
1776	 1.8593750000e+002	 9.08093e-003
1777	 1.8600000000e+002	 1.62595e-002
1778	 1.8606250000e+002	 1.06001e-002
1779	 1.8612500000e+002	 8.03461e-003
1780	 1.8618750000e+002	 7.94134e-003
1781	 1.8625000000e+002	 1.32040e-002
1782	 1.8631250000e+002	 1.67947e-002
1783	 1.8637500000e+002	 2.41920e-002
1784	 1.8643750000e+002	 1.77749e-002
1785	 1.8650000000e+002	 1.20211e-002
1786	 1.8656250000e+002	 1.30660e-002
1787	 1.8662500000e+002	 1.62629e-002
1788	 1.8668750000e+002	 2.47324e-002
1789	 1.8675000000e+002	 2.24239e-002
1790	 1.8681250000e+002	 9.80360e-003
1791	 1.8687500000e+002	 1.16860e-002
1792	 1.8693750000e+002	 1.36947e-002
1793	 1.8700000000e+002	 9.65790e-003
1794	 1.8706250000e+002	 9.66538e-003
1795	 1.8712500000e+002	 1.75628e-002
1796	 1.8718750000e+002	 1.86223e-002
1797	 1.8725000000e+002	 9.46893e-003
1798	 1.8731250000e+002	 1.09501e-002
1799	 1.8737500000e+002	 1.08769e-002
1800	 1.8743750000e+002	 5.14601e-003
1801	 1.8750000000e+002	 7.60301e-003
1802	 1.8756250000e+002	 1.38588e-002
1803	 1.8762500000e+002	 9.66418e-003
1804	 1.8768750000e+002	 7.65774e-003
1805	 1.8775000000e+002	 9.12024e-003
1806	 1.8781250000e+002	 1.38131e-002
1807	 1.8787500000e+002	 1.25725e-002
1808	 1.8793750000e+002	 9.75720e-003
1809	 1.8800000000e+002	 8.64633e-003
1810	 1.8806250000e+002	 1.45385e-002
1811	 1.8812500000e+002	 2.10819e-002
1812	 1.8818750000e+002	 6.50281e-003
1813	 1.8825000000e+002	 1.33478e-002
1814	 1.8831250000e+002	 1.51536e-002
1815	 1.8837500000e+002	 8.67837e-003
1816	 1.8843750000e+002	 9.00817e-003
1817	 1.8850000000e+002	 9.21180e-003
1818	 1.8856250000e+002	 1.05111e-002
1819	 1.8862500000e+002	 1.30166e-002
1820	 1.8868750000e+002	 1.62006e-002
1821	 1.8875000000e+002	 7.49825e-003
1822	 1.8881250000e+002	 8.26359e-003
1823	 1.8887500000e+002	 1.17084e-002
1824	 1.8893750000e+002	 1.45695e-002
1825	 1.8900000000e+002	 1.16910e-002
1826	 1.8906250000e+002	 1.24768e-002
1827	 1.8912500000e+002	 1.24997e-002
1828	 1.8918750000e+002	 8.87340e-003
1829	 1.8925000000e+002	 9.02088e-003
1830	 1.8931250000e+002	 8.17613e-003
1831	 1.8937500000e+002	 1.37792e-002
1832	 1.8943750000e+002	 1.26229e-002
1833	 1.8950000000e+002	 2.04591e-002
1834	 1.8956250000e+002	 2.43307e-002
1835	 1.8962500000e+002	 2.09744e-002
1836	 1.8968750000e+002	 1.11133e-002
1837	 1.8975000000e+002	 1.34569e-002
1838	 1.8981250000e+002	 2.18770e-002
1839	 1.8987500000e+002	 1.27932e-002
1840	 1.8993750000e+002	 8.89732e-003
1841	 1.9000000000e+002	 7.56235e-003
1842	 1.9006250000e+002	 9.75459e-003
1843	 1.9012500000e+002	 1.32997e-002
1844	 1.9018750000e+002	 7.20526e-003
1845	 1.9025000000e+002	 1.55910e-002
1846	 1.9031250000e+002	 2.17642e-002
1847	 1.9037500000e+002	 2.98380e-002
1848	 1.9043750000e+002	 2.64164e-002
1849	 1.9050000000e+002	 1.23200e-002
1850	 1.9056250000e+002	 1.66571e-002
1851	 1.9062500000e+002	 1.95976e-002
1852	 1.9068750000e+002	 2.10688e-002
1853	 1.9075000000e+002	 1.98716e-002
1854	 1.9081250000e+002	 1.64791e-002
1855	 1.9087500000e+002	 2.17340e-002
1856	 1.9093750000e+002	 2.03965e-002
1857	 1.9100000000e+002	 2.78275e-002
1858	 1.9106250000e+002	 1.25648e-002
1859	 1.9112500000e+002	 8.24533e-003
1860	 1.9118750000e+002	 1.25249e-002
1861	 1.9125000000e+002	 1.01291e-002
1862	 1.9131250000e+002	 1.36809e-002
1863	 1.9137500000e+002	 1.42337e-002
1864	 1.9143750000e+002	 1.33086e-002
1865	 1.9150000000e+002	 1.05113e-002
1866	 1.9156250000e+002	 1.01858e-002
1867	 1.9162500000e+002	 9.33789e-003
1868	 1.9168750000e+002	 1.34174e-002
1869	 1.9175000000e+002	 1.54247e-002
1870	 1.9181250000e+002	 2.27792e-002
1871	 1.9187500000e+002	 1.92054e-002
1872	 1.9193750000e+002	 1.17873e-002
1873	 1.9200000000e+002	 1.12915e-002
1874	 1.9206250000e+002	 1.13990e-002
1875	 1.9212500000e+002	 1.40426e-002
1876	 1.9218750000e+002	 2.58995e-002
1877	 1.9225000000e+002	 2.94267e-002
1878	 1.9231250000e+002	 1.70323e-002
1879	 1.9237500000e+002	 1.06452e-002
1880	 1.9243750000e+002	 1.80341e-002
1881	 1.9250000000e+002	 1.93865e-002
1882	 1.9256250000e+002	 1.47949e-002
1883	 1.9262500000e+002	 1.02438e-002
1884	 1.9268750000e+002	 1.07307e-002
1885	 1.9275000000e+002	 9.59956e-003
1886	 1.9281250000e+002	 1.37813e-002
1887	 1.9287500000e+002	 1.08610e-002
1888	 1.9293750000e+002	 1.12010e-002
1889	 1.9300000000e+002	 1.38234e-002
1890	 1.9306250000e+002	 1.09558e-002
1891	 1.9312500000e+002	 1.19566e-002
1892	 1.9318750000e+002	 1.19177e-002
1893	 1.9325000000e+002	 9.24220e-003
1894	 1.9331250000e+002	 1.56761e-002
1895	 1.9337500000e+002	 1.56565e-002
1896	 1.9343750000e+002	 7.69457e-003
1897	 1.9350000000e+002	 1.17601e-002
1898	 1.9356250000e+002	 9.36279e-003
1899	 1.9362500000e+002	 1.53322e-002
1900	 1.9368750000e+002	 1.54322e-002
1901	 1.9375000000e+002	 1.31749e-002
1902	 1.9381250000e+002	 7.91342e-003
1903	 1.9387500000e+002	 5.17761e-003
1904	 1.9393750000e+002	 8.34276e-003
1905	 1.9400000000e+002	 1.22640e-002
1906	 1.9406250000e+002	 1.63273e-002
1907	 1.9412500000e+002	 2.08822e-002
1908	 1.9418750000e+002	 1.72702e-002
1909	 1.9425000000e+002	 1.62934e-002
1910	 1.9431250000e+002	 1.32276e-002
1911	 1.9437500000e+002	 2.08449e-002
1912	 1.9443750000e+002	 3.18578e-002
1913	 1.9450000000e+002	 1.80057e-002
1914	 1.9456250000e+002	 1.77417e-002
1915	 1.9462500000e+002	 1.89948e-002
1916	 1.9468750000e+002	 2.34002e-002
1917	 1.9475000000e+002	 1.42782e-002
1918	 1.9481250000e+002	 1.60325e-002
1919	 1.9487500000e+002	 1.36688e-002
1920	 1.9493750000e+002	 8.85899e-003
1921	 1.9500000000e+002	 1.85103e-002
1922	 1.9506250000e+002	 2.34053e-002
1923	 1.9512500000e+002	 1.51832e-002
1924	 1.9518750000e+002	 1.24145e-002
1925	 1.9525000000e+002	 8.40072e-003
1926	 1.9531250000e+002	 1.41383e-002
1927	 1.9537500000e+002	 1.44957e-002
1928	 1.9543750000e+002	 1.25484e-002
1929	 1.9550000000e+002	 1.68399e-002
1930	 1.9556250000e+002	 1.17195e-002
1931	 1.9562500000e+002	 1.42162e-002
1932	 1.9568750000e+002	 2.36538e-002
1933	 1.9575000000e+002	 2.88651e-002
1934	 1.9581250000e+002	 1.74502e-002
1935	 1.9587500000e+002	 1.63333e-002
1936	 1.9593750000e+002	 1.35492e-002
1937	 1.9600000000e+002	 1.01141e-002
1938	 1.9606250000e+002	 1.24879e-002
1939	 1.9612500000e+002	 1.86219e-002
1940	 1.9618750000e+002	 1.53542e-002
1941	 1.9625000000e+002	 7.30872e-003
1942	 1.9631250000e+002	 7.57384e-003
1943	 1.9637500000e+002	 5.54157e-003
1944	 1.9643750000e+002	 7.88648e-003
1945	 1.9650000000e+002	 9.48576e-003
1946	 1.9656250000e+002	 1.21486e-002
1947	 1.9662500000e+002	 2.05933e-002
1948	 1.9668750000e+002	 2.36848e-002
1949	 1.9675000000e+002	 1.06333e-002
1950	 1.9681250000e+002	 5.45527e-003
1951	 1.9687500000e+002	 1.35832e-002
1952	 1.9693750000e+002	 3.17954e-002
1953	 1.9700000000e+002	 3.14814e-002
1954	 1.9706250000e+002	 2.12105e-002
1955	 1.9712500000e+002	 1.88387e-002
1956	 1.9718750000e+002	 3.46159e-002
1957	 1.9725000000e+002	 2.24612e-002
1958	 1.9731250000e+002	 1.71692e-002
1959	 1.9737500000e+002	 1.00555e-002
1960	 1.9743750000e+002	 1.38226e-002
1961	 1.9750000000e+002	 2.84350e-002
1962	 1.9756250000e+002	 2.66063e-002
1963	 1.9762500000e+002	 2.09743e-002
1964	 1.9768750000e+002	 1.55802e-002
1965	 1.9775000000e+002	 9.67257e-003
1966	 1.9781250000e+002	 7.53753e-003
1967	 1.9787500000e+002	 1.47288e-002
1968	 1.9793750000e+002	 3.70778e-002
1969	 1.9800000000e+002	 2.41198e-002
1970	 1.9806250000e+002	 1.42720e-002
1971	 1.9812500000e+002	 1.47657e-002
1972	 1.9818750000e+002	 1.86268e-002
1973	 1.9825000000e+002	 1.39812e-002
1974	 1.9831250000e+002	 1.18676e-002
1975	 1.9837500000e+002	 1.63519e-002
1976	 1.9843750000e+002	 1.58262e-002
1977	 1.9850000000e+002	 7.89507e-003
1978	 1.9856250000e+002	 8.30699e-003
1979	 1.9862500000e+002	 9.10639e-003
1980	 1.9868750000e+002	 1.16206e-002
1981	 1.9875000000e+002	 2.76912e-002
1982	 1.9881250000e+002	 2.36586e-002
1983	 1.9887500000e+002	 1.71755e-002
1984	 1.9893750000e+002	 1.78105e-002
1985	 1.9900000000e+002	 3.04320e-002
1986	 1.9906250000e+002	 2.74417e-002
1987	 1.9912500000e+002	 1.84031e-002
1988	 1.9918750000e+002	 1.96739e-002
1989	 1.9925000000e+002	 2.69192e-002
1990	 1.9931250000e+002	 7.01452e-003
1991	 1.9937500000e+002	 1.02105e-002
1992	 1.9943750000e+002	 1.45128e-002
1993	 1.9950000000e+002	 1.31932e-002
1994	 1.9956250000e+002	 1.00686e-002
1995	 1.9962500000e+002	 1.24506e-002
1996	 1.9968750000e+002	 1.40982e-002
1997	 1.9975000000e+002	 1.13478e-002
1998	 1.9981250000e+002	 1.18513e-002
1999	 1.9987500000e+002	 3.02991e-002
2000	 1.9993750000e+002	 2.89565e-002
2001	 2.0000000000e+002	 2.84240e-002
2002	 2.0006250000e+002	 1.87425e-002
2003	 2.0012500000e+002	 1.48945e-002
2004	 2.0018750000e+002	 2.56000e-002
2005	 2.0025000000e+002	 4.14534e-002
2006	 2.0031250000e+002	 3.41735e-002
2007	 2.0037500000e+002	 3.79400e-002
2008	 2.0043750000e+002	 3.50188e-002
2009	 2.0050000000e+002	 3.13143e-002
2010	 2.0056250000e+002	 3.66155e-002
2011	 2.0062500000e+002	 9.38059e-003
2012	 2.0068750000e+002	 1.25666e-002
2013	 2.0075000000e+002	 1.29463e-002
2014	 2.0081250000e+002	 1.36627e-002
2015	 2.0087500000e+002	 1.61038e-002
2016	 2.0093750000e+002	 2.30677e-002
2017	 2.0100000000e+002	 1.88345e-002
2018	 2.0106250000e+002	 1.61366e-002
2019	 2.0112500000e+002	 1.91872e-002
2020	 2.0118750000e+002	 2.37673e-002
2021	 2.0125000000e+002	 1.75420e-002
2022	 2.0131250000e+002	 1.30722e-002
2023	 2.0137500000e+002	 3.08250e-002
2024	 2.0143750000e+002	 1.70810e-002
2025	 2.0150000000e+002	 1.23907e-002
2026	 2.0156250000e+002	 1.79550e-002
2027	 2.0162500000e+002	 3.51716e-002
2028	 2.0168750000e+002	 4.56614e-002
2029	 2.0175000000e+002	 4.10096e-002
2030	 2.0181250000e+002	 2.98090e-002
2031	 2.0187500000e+002	 3.41969e-002
2032	 2.0193750000e+002	 2.90906e-002
2033	 2.0200000000e+002	 3.08357e-002
2034	 2.0206250000e+002	 2.81796e-002
2035	 2.0212500000e+002	 1.49561e-002
2036	 2.0218750000e+002	 2.03704e-002
2037	 2.0225000000e+002	 1.85391e-002
2038	 2.0231250000e+002	 2.81227e-002
2039	 2.0237500000e+002	 5.03674e-002
2040	 2.0243750000e+002	 3.85334e-002
2041	 2.0250000000e+002	 3.96993e-002
2042	 2.0256250000e+002	 3.56061e-002
2043	 2.0262500000e+002	 3.24318e-002
2044	 2.0268750000e+002	 3.84813e-002
2045	 2.0275000000e+002	 3.88165e-002
2046	 2.0281250000e+002	 3.09558e-002
2047	 2.0287500000e+002	 2.91922e-002
2048	 2.0293750000e+002	 4.20294e-002
2049	 2.0300000000e+002	 4.57533e-002
2050	 2.0306250000e+002	 2.83148e-002
2051	 2.0312500000e+002	 1.83209e-002
2052	 2.0318750000e+002	 2.48316e-002
2053	 2.0325000000e+002	 3.78195e-002
2054	 2.0331250000e+002	 3.84979e-002
2055	 2.0337500000e+002	 2.52148e-002
2056	 2.0343750000e+002	 2.29925e-002
2057	 2.0350000000e+002	 2.92621e-002
2058	 2.0356250000e+002	 4.29947e-002
2059	 2.0362500000e+002	 4.02236e-002
2060	 2.0368750000e+002	 2.50786e-002
2061	 2.0375000000e+002	 2.17240e-002
2062	 2.0381250000e+002	 3.33726e-002
2063	 2.0387500000e+002	 4.24315e-002
2064	 2.0393750000e+002	 3.61763e-002
2065	 2.0400000000e+002	 2.21318e-002
2066	 2.0406250000e+002	 4.41171e-002
2067	 2.0412500000e+002	 4.52099e-002
2068	 2.0418750000e+002	 2.49069e-002
2069	 2.0425000000e+002	 2.14999e-002
2070	 2.0431250000e+002	 2.45971e-002
2071	 2.0437500000e+002	 2.37999e-002
2072	 2.0443750000e+002	 2.09821e-002
2073	 2.0450000000e+002	 1.73021e-002
2074	 2.0456250000e+002	 1.65932e-002
2075	 2.0462500000e+002	 2.58205e-002
2076	 2.0468750000e+002	 3.49967e-002
2077	 2.0475000000e+002	 1.99808e-002
2078	 2.0481250000e+002	 4.65971e-002
2079	 2.0487500000e+002	 5.85322e-002
2080	 2.0493750000e+002	 2.54302e-002
2081	 2.0500000000e+002	 1.74241e-002
2082	 2.0506250000e+002	 2.75860e-002
2083	 2.0512500000e+002	 3.03312e-002
2084	 2.0518750000e+002	 4.69589e-002
2085	 2.0525000000e+002	 6.95947e-002
2086	 2.0531250000e+002	 4.42182e-002
2087	 2.0537500000e+002	 4.72622e-002
2088	 2.0543750000e+002	 4.03946e-002
2089	 2.0550000000e+002	 3.45835e-002
2090	 2.0556250000e+002	 4.49138e-002
2091	 2.0562500000e+002	 4.78624e-002
2092	 2.0568750000e+002	 4.65945e-002
2093	 2.0575000000e+002	 3.16611e-002
2094	 2.0581250000e+002	 3.34336e-002
2095	 2.0587500000e+002	 4.74151e-002
2096	 2.0593750000e+002	 5.85436e-002
2097	 2.0600000000e+002	 6.84727e-002
2098	 2.0606250000e+002	 5.60464e-002
2099	 2.0612500000e+002	 3.96376e-002
2100	 2.0618750000e+002	 4.00700e-002
2101	 2.0625000000e+002	 3.04377e-002
2102	 2.0631250000e+002	 3.48332e-002
2103	 2.0637500000e+002	 3.39693e-002
2104	 2.0643750000e+002	 2.18614e-002
2105	 2.0650000000e+002	 3.72154e-002
2106	 2.0656250000e+002	 2.52965e-002
2107	 2.0662500000e+002	 4.37035e-002
2108	 2.0668750000e+002	 1.38725e-001
2109	 2.0675000000e+002	 1.32730e-001
2110	 2.0681250000e+002	 8.18860e-002
2111	 2.0687500000e+002	 7.92834e-002
2112	 2.0693750000e+002	 5.30126e-002
2113	 2.0700000000e+002	 6.31749e-002
2114	 2.0706250000e+002	 5.60770e-002
2115	 2.0712500000e+002	 2.51731e-002
2116	 2.0718750000e+002	 1.48489e-002
2117	 2.0725000000e+002	 2.30477e-002
2118	 2.0731250000e+002	 4.25611e-002
2119	 2.0737500000e+002	 5.75505e-002
2120	 2.0743750000e+002	 5.06079e-002
2121	 2.0750000000e+002	 3.98766e-002
2122	 2.0756250000e+002	 4.77973e-002
2123	 2.0762500000e+002	 7.39218e-002
2124	 2.0768750000e+002	 4.30100e-002
2125	 2.0775000000e+002	 1.81648e-002
2126	 2.0781250000e+002	 5.74416e-002
2127	 2.0787500000e+002	 8.11230e-002
2128	 2.0793750000e+002	 1.02073e-001
2129	 2.0800000000e+002	 1.29193e-001
2130	 2.0806250000e+002	 6.02059e-002
2131	 2.0812500000e+002	 5.11996e-002
2132	 2.0818750000e+002	 8.58643e-002
2133	 2.0825000000e+002	 1.46676e-001
2134	 2.0831250000e+002	 9.41387e-002
2135	 2.0837500000e+002	 9.63881e-002
2136	 2.0843750000e+002	 6.94513e-002
2137	 2.0850000000e+002	 7.29149e-002
2138	 2.0856250000e+002	 1.34360e-001
2139	 2.0862500000e+002	 1.35809e-001
2140	 2.0868750000e+002	 1.60697e-001
2141	 2.0875000000e+002	 1.14019e-001
2142	 2.0881250000e+002	 7.93962e-002
2143	 2.0887500000e+002	 1.10548e-001
2144	 2.0893750000e+002	 6.07415e-002
2145	 2.0900000000e+002	 4.43842e-002
2146	 2.0906250000e+002	 1.16197e-001
2147	 2.0912500000e+002	 1.33583e-001
2148	 2.0918750000e+002	 2.20858e-001
2149	 2.0925000000e+002	 3.30163e-001
2150	 2.0931250000e+002	 1.82417e-001
2151	 2.0937500000e+002	 1.25580e-001
2152	 2.0943750000e+002	 1.02090e-001
2153	 2.0950000000e+002	 8.25637e-002
2154	 2.0956250000e+002	 1.13802e-001
2155	 2.0962500000e+002	 9.72668e-002
2156	 2.0968750000e+002	 1.26897e-001
2157	 2.0975000000e+002	 9.36575e-002
2158	 2.0981250000e+002	 9.70630e-002
2159	 2.0987500000e+002	 9.90610e-002
2160	 2.0993750000e+002	 8.04216e-002
2161	 2.1000000000e+002	 1.19365e-001
2162	 2.1006250000e+002	 8.08746e-002
2163	 2.1012500000e+002	 4.06906e-002
2164	 2.1018750000e+002	 1.47859e-001
2165	 2.1025000000e+002	 2.17831e-001
2166	 2.1031250000e+002	 1.46166e-001
2167	 2.1037500000e+002	 1.12760e-001
2168	 2.1043750000e+002	 6.54408e-002
2169	 2.1050000000e+002	 7.50505e-002
2170	 2.1056250000e+002	 1.40151e-001
2171	 2.1062500000e+002	 1.14684e-001
2172	 2.1068750000e+002	 1.34870e-001
2173	 2.1075000000e+002	 1.33731e-001
2174	 2.1081250000e+002	 1.21299e-001
2175	 2.1087500000e+002	 1.99445e-001
2176	 2.1093750000e+002	 2.56679e-001
2177	 2.1100000000e+002	 2.07547e-001
2178	 2.1106250000e+002	 1.20891e-001
2179	 2.1112500000e+002	 1.11353e-001
2180	 2.1118750000e+002	 1.54276e-001
2181	 2.1125000000e+002	 1.29452e-001
2182	 2.1131250000e+002	 1.58060e-001
2183	 2.1137500000e+002	 1.74440e-001
2184	 2.1143750000e+002	 2.16469e-001
2185	 2.1150000000e+002	 2.80322e-001
2186	 2.1156250000e+002	 4.37388e-001
2187	 2.1162500000e+002	 2.97554e-001
2188	 2.1168750000e+002	 4.11085e-001
2189	 2.1175000000e+002	 2.79523e-001
2190	 2.1181250000e+002	 2.53541e-001
2191	 2.1187500000e+002	 4.23212e-001
2192	 2.1193750000e+002	 3.35307e-001
2193	 2.1200000000e+002	 2.28268e-001
2194	 2.1206250000e+002	 3.10130e-001
2195	 2.1212500000e+002	 2.61452e-001
2196	 2.1218750000e+002	 9.00002e-002
2197	 2.1225000000e+002	 1.47127e-001
2198	 2.1231250000e+002	 3.06995e-001
2199	 2.1237500000e+002	 3.08064e-001
2200	 2.1243750000e+002	 2.99685e-001
2201	 2.1250000000e+002	 2.46486e-001
2202	 2.1256250000e+002	 3.89199e-001
2203	 2.1262500000e+002	 4.79985e-001
2204	 2.1268750000e+002	 6.34623e-001
2205	 2.1275000000e+002	 3.86358e-001
2206	 2.1281250000e+002	 1.34596e-001
2207	 2.1287500000e+002	 2.40780e-001
2208	 2.1293750000e+002	 2.48666e-001
2209	 2.1300000000e+002	 3.18855e-001
2210	 2.1306250000e+002	 3.53705e-001
2211	 2.1312500000e+002	 2.17212e-001
2212	 2.1318750000e+002	 2.62952e-001
2213	 2.1325000000e+002	 5.28752e-001
2214	 2.1331250000e+002	 5.92803e-001
2215	 2.1337500000e+002	 6.49594e-001
2216	 2.1343750000e+002	 5.84993e-001
2217	 2.1350000000e+002	 4.99488e-001
2218	 2.1356250000e+002	 6.16958e-001
2219	 2.1362500000e+002	 9.12633e-001
2220	 2.1368750000e+002	 5.15557e-001
2221	 2.1375000000e+002	 2.02207e-001
2222	 2.1381250000e+002	 2.88176e-001
2223	 2.1387500000e+002	 3.67953e-001
2224	 2.1393750000e+002	 4.44097e-001
2225	 2.1400000000e+002	 5.21461e-001
2226	 2.1406250000e+002	 5.38019e-001
2227	 2.1412500000e+002	 7.38984e-001
2228	 2.1418750000e+002	 5.80885e-001
2229	 2.1425000000e+002	 1.00759e+000
2230	 2.1431250000e+002	 8.27465e-001
2231	 2.1437500000e+002	 5.71985e-001
2232	 2.1443750000e+002	 5.65677e-001
2233	 2.1450000000e+002	 4.44078e-001
2234	 2.1456250000e+002	 1.83718e-001
2235	 2.1462500000e+002	 3.01516e-001
2236	 2.1468750000e+002	 5.82625e-001
2237	 2.1475000000e+002	 3.56777e-001
2238	 2.1481250000e+002	 2.43464e-001
2239	 2.1487500000e+002	 2.48859e-001
2240	 2.1493750000e+002	 4.18888e-001
2241	 2.1500000000e+002	 4.82997e-001
2242	 2.1506250000e+002	 4.30159e-001
2243	 2.1512500000e+002	 2.65142e-001
2244	 2.1518750000e+002	 3.36305e-001
2245	 2.1525000000e+002	 2.58792e-001
2246	 2.1531250000e+002	 4.17566e-001
2247	 2.1537500000e+002	 3.02755e-001
2248	 2.1543750000e+002	 2.60092e-001
2249	 2.1550000000e+002	 1.86059e-001
2250	 2.1556250000e+002	 2.52808e-001
2251	 2.1562500000e+002	 2.98845e-001
2252	 2.1568750000e+002	 4.61977e-001
2253	 2.1575000000e+002	 3.99427e-001
2254	 2.1581250000e+002	 2.46537e-001
2255	 2.1587500000e+002	 4.19338e-001
2256	 2.1593750000e+002	 3.83432e-001
2257	 2.1600000000e+002	 3.06794e-001
2258	 2.1606250000e+002	 3.57413e-001
2259	 2.1612500000e+002	 3.76730e-001
2260	 2.1618750000e+002	 1.70087e-001
2261	 2.1625000000e+002	 2.68670e-001
2262	 2.1631250000e+002	 2.97207e-001
2263	 2.1637500000e+002	 3.92050e-001
2264	 2.1643750000e+002	 6.74418e-001
2265	 2.1650000000e+002	 3.52487e-001
2266	 2.1656250000e+002	 1.86726e-001
2267	 2.1662500000e+002	 1.68409e-001
2268	 2.1668750000e+002	 2.30296e-001
2269	 2.1675000000e+002	 2.50652e-001
2270	 2.1681250000e+002	 2.26580e-001
2271	 2.1687500000e+002	 2.09224e-001
2272	 2.1693750000e+002	 2.83688e-001
2273	 2.1700000000e+002	 3.79480e-001
2274	 2.1706250000e+002	 3.14726e-001
2275	 2.1712500000e+002	 2.12452e-001
2276	 2.1718750000e+002	 2.28263e-001
2277	 2.1725000000e+002	 1.77970e-001
2278	 2.1731250000e+002	 1.80943e-001
2279	 2.1737500000e+002	 1.56316e-001
2280	 2.1743750000e+002	 2.31043e-001
2281	 2.1750000000e+002	 1.84887e-001
2282	 2.1756250000e+002	 1.85863e-001
2283	 2.1762500000e+002	 1.94773e-001
2284	 2.1768750000e+002	 6.87131e-002
2285	 2.1775000000e+002	 1.52420e-001
2286	 2.1781250000e+002	 1.91260e-001
2287	 2.1787500000e+002	 8.87746e-002
2288	 2.1793750000e+002	 1.33889e-001
2289	 2.1800000000e+002	 1.59540e-001
2290	 2.1806250000e+002	 1.26369e-001
2291	 2.1812500000e+002	 1.44404e-001
2292	 2.1818750000e+002	 1.44293e-001
2293	 2.1825000000e+002	 2.09560e-001
2294	 2.1831250000e+002	 1.58206e-001
2295	 2.1837500000e+002	 1.87155e-001
2296	 2.1843750000e+002	 1.14179e-001
2297	 2.1850000000e+002	 1.31115e-001
2298	 2.1856250000e+002	 1.40404e-001
2299	 2.1862500000e+002	 9.10514e-002
2300	 2.1868750000e+002	 2.04105e-001
2301	 2.1875000000e+002	 1.97991e-001
2302	 2.1881250000e+002	 1.03431e-001
2303	 2.1887500000e+002	 6.24867e-002
2304	 2.1893750000e+002	 8.49373e-002
2305	 2.1900000000e+002	 1.12246e-001
2306	 2.1906250000e+002	 1.31377e-001
2307	 2.1912500000e+002	 8.54205e-002
2308	 2.1918750000e+002	 9.93725e-002
2309	 2.1925000000e+002	 1.39618e-001
2310	 2.1931250000e+002	 8.42101e-002
2311	 2.1937500000e+002	 1.53725e-001
2312	 2.1943750000e+002	 1.50866e-001
2313	 2.1950000000e+002	 9.88093e-002
2314	 2.1956250000e+002	 8.12309e-002
2315	 2.1962500000e+002	 9.10185e-002
2316	 2.1968750000e+002	 1.13358e-001
2317	 2.1975000000e+002	 7.27080e-002
2318	 2.1981250000e+002	 1.12753e-001
2319	 2.1987500000e+002	 5.15810e-002
2320	 2.1993750000e+002	 6.91816e-002
2321	 2.2000000000e+002	 6.92099e-002
2322	 2.2006250000e+002	 8.24416e-002
2323	 2.2012500000e+002	 1.21446e-001
2324	 2.2018750000e+002	 1.58640e-001
2325	 2.2025000000e+002	 1.48044e-001
2326	 2.2031250000e+002	 9.25945e-002
2327	 2.2037500000e+002	 1.30575e-001
2328	 2.2043750000e+002	 1.25875e-001
2329	 2.2050000000e+002	 1.00638e-001
2330	 2.2056250000e+002	 5.68342e-002
2331	 2.2062500000e+002	 4.71079e-002
2332	 2.2068750000e+002	 6.45416e-002
2333	 2.2075000000e+002	 4.92966e-002
2334	 2.2081250000e+002	 8.00032e-002
2335	 2.2087500000e+002	 1.59366e-001
2336	 2.2093750000e+002	 1.33181e-001
2337	 2.2100000000e+002	 9.33048e-002
2338	 2.2106250000e+002	 1.69731e-001
2339	 2.2112500000e+002	 1.14192e-001
2340	 2.2118750000e+002	 3.54281e-002
2341	 2.2125000000e+002	 2.37229e-002
2342	 2.2131250000e+002	 4.11596e-002
2343	 2.2137500000e+002	 4.71087e-002
2344	 2.2143750000e+002	 4.69431e-002
2345	 2.2150000000e+002	 6.56164e-002
2346	 2.2156250000e+002	 7.16411e-002
2347	 2.2162500000e+002	 5.31823e-002
2348	 2.2168750000e+002	 6.65341e-002
2349	 2.2175000000e+002	 3.72895e-002
2350	 2.2181250000e+002	 4.47197e-002
2351	 2.2187500000e+002	 4.60195e-002
2352	 2.2193750000e+002	 4.39611e-002
2353	 2.2200000000e+002	 3.73374e-002
2354	 2.2206250000e+002	 2.42582e-002
2355	 2.2212500000e+002	 5.04603e-002
2356	 2.2218750000e+002	 7.44876e-002
2357	 2.2225000000e+002	 2.38720e-002
2358	 2.2231250000e+002	 2.53749e-002
2359	 2.2237500000e+002	 2.86724e-002
2360	 2.2243750000e+002	 2.37742e-002
2361	 2.2250000000e+002	 2.61419e-002
2362	 2.2256250000e+002	 2.48847e-002
2363	 2.2262500000e+002	 2.89987e-002
2364	 2.2268750000e+002	 3.41749e-002
2365	 2.2275000000e+002	 2.70839e-002
2366	 2.2281250000e+002	 1.80994e-002
2367	 2.2287500000e+002	 2.54164e-002
2368	 2.2293750000e+002	 3.01788e-002
2369	 2.2300000000e+002	 1.92631e-002
2370	 2.2306250000e+002	 1.62646e-002
2371	 2.2312500000e+002	 3.58132e-002
2372	 2.2318750000e+002	 5.26265e-002
2373	 2.2325000000e+002	 4.84239e-002
2374	 2.2331250000e+002	 3.42801e-002
2375	 2.2337500000e+002	 4.01124e-002
2376	 2.2343750000e+002	 3.42794e-002
2377	 2.2350000000e+002	 4.19670e-002
2378	 2.2356250000e+002	 3.78988e-002
2379	 2.2362500000e+002	 4.06811e-002
2380	 2.2368750000e+002	 5.65773e-002
2381	 2.2375000000e+002	 3.38989e-002
2382	 2.2381250000e+002	 1.21880e-002
2383	 2.2387500000e+002	 1.50440e-002
2384	 2.2393750000e+002	 4.47754e-002
2385	 2.2400000000e+002	 4.96265e-002
2386	 2.2406250000e+002	 3.21092e-002
2387	 2.2412500000e+002	 2.87097e-002
2388	 2.2418750000e+002	 4.41373e-002
2389	 2.2425000000e+002	 2.37273e-002
2390	 2.2431250000e+002	 1.63848e-002
2391	 2.2437500000e+002	 1.95424e-002
2392	 2.2443750000e+002	 1.75991e-002
2393	 2.2450000000e+002	 1.94841e-002
2394	 2.2456250000e+002	 2.30933e-002
2395	 2.2462500000e+002	 2.99680e-002
2396	 2.2468750000e+002	 3.60456e-002
2397	 2.2475000000e+002	 4.48958e-002
2398	 2.2481250000e+002	 6.55933e-002
2399	 2.2487500000e+002	 5.43000e-002
2400	 2.2493750000e+002	 1.49235e-002
2401	 2.2500000000e+002	 2.52820e-002
2402	 2.2506250000e+002	 3.33980e-002
2403	 2.2512500000e+002	 2.14249e-002
2404	 2.2518750000e+002	 1.70925e-002
2405	 2.2525000000e+002	 3.56574e-002
2406	 2.2531250000e+002	 2.82684e-002
2407	 2.2537500000e+002	 1.17788e-002
2408	 2.2543750000e+002	 1.00368e-002
2409	 2.2550000000e+002	 1.94602e-002
2410	 2.2556250000e+002	 2.36444e-002
2411	 2.2562500000e+002	 2.46887e-002
2412	 2.2568750000e+002	 3.06729e-002
2413	 2.2575000000e+002	 2.91260e-002
2414	 2.2581250000e+002	 2.70965e-002
2415	 2.2587500000e+002	 1.77491e-002
2416	 2.2593750000e+002	 2.37697e-002
2417	 2.2600000000e+002	 2.87908e-002
2418	 2.2606250000e+002	 4.12870e-002
2419	 2.2612500000e+002	 3.08796e-002
2420	 2.2618750000e+002	 1.88673e-002
2421	 2.2625000000e+002	 2.37782e-002
2422	 2.2631250000e+002	 2.85202e-002
2423	 2.2637500000e+002	 2.12042e-002
2424	 2.2643750000e+002	 2.43562e-002
2425	 2.2650000000e+002	 2.00539e-002
2426	 2.2656250000e+002	 3.92469e-002
2427	 2.2662500000e+002	 2.61357e-002
2428	 2.2668750000e+002	 1.25498e-002
2429	 2.2675000000e+002	 1.27781e-002
2430	 2.2681250000e+002	 7.59185e-003
2431	 2.2687500000e+002	 2.35604e-002
2432	 2.2693750000e+002	 5.09087e-002
2433	 2.2700000000e+002	 3.30175e-002
2434	 2.2706250000e+002	 1.42892e-002
2435	 2.2712500000e+002	 9.14317e-003
2436	 2.2718750000e+002	 1.38420e-002
2437	 2.2725000000e+002	 2.08504e-002
2438	 2.2731250000e+002	 2.03818e-002
2439	 2.2737500000e+002	 1.62741e-002
2440	 2.2743750000e+002	 1.79966e-002
2441	 2.2750000000e+002	 2.81410e-002
2442	 2.2756250000e+002	 1.72586e-002
2443	 2.2762500000e+002	 1.20392e-002
2444	 2.2768750000e+002	 2.91504e-002
2445	 2.2775000000e+002	 2.32880e-002
2446	 2.2781250000e+002	 1.61885e-002
2447	 2.2787500000e+002	 2.68550e-002
2448	 2.2793750000e+002	 2.71227e-002
2449	 2.2800000000e+002	 2.21403e-002
2450	 2.2806250000e+002	 1.44841e-002
2451	 2.2812500000e+002	 1.22858e-002
2452	 2.2818750000e+002	 1.70107e-002
2453	 2.2825000000e+002	 1.20873e-002
2454	 2.2831250000e+002	 2.14330e-002
2455	 2.2837500000e+002	 3.18353e-002
2456	 2.2843750000e+002	 2.32339e-002
2457	 2.2850000000e+002	 1.21001e-002
2458	 2.2856250000e+002	 1.35774e-002
2459	 2.2862500000e+002	 1.43136e-002
2460	 2.2868750000e+002	 1.38004e-002
2461	 2.2875000000e+002	 2.12102e-002
2462	 2.2881250000e+002	 1.94984e-002
2463	 2.2887500000e+002	 2.83917e-002
2464	 2.2893750000e+002	 1.78270e-002
2465	 2.2900000000e+002	 1.67243e-002
2466	 2.2906250000e+002	 1.32841e-002
2467	 2.2912500000e+002	 1.57798e-002
2468	 2.2918750000e+002	 1.44003e-002
2469	 2.2925000000e+002	 1.81404e-002
2470	 2.2931250000e+002	 1.53045e-002
2471	 2.2937500000e+002	 2.04683e-002
2472	 2.2943750000e+002	 1.46117e-002
2473	 2.2950000000e+002	 9.65720e-003
2474	 2.2956250000e+002	 9.35790e-003
2475	 2.2962500000e+002	 1.00443e-002
2476	 2.2968750000e+002	 6.75778e-003
2477	 2.2975000000e+002	 1.06919e-002
2478	 2.2981250000e+002	 1.30564e-002
2479	 2.2987500000e+002	 2.07950e-002
2480	 2.2993750000e+002	 2.68232e-002
2481	 2.3000000000e+002	 1.83677e-002
2482	 2.3006250000e+002	 1.59280e-002
2483	 2.3012500000e+002	 1.93983e-002
2484	 2.3018750000e+002	 2.02056e-002
2485	 2.3025000000e+002	 1.75749e-002
2486	 2.3031250000e+002	 1.59857e-002
2487	 2.3037500000e+002	 8.56756e-003
2488	 2.3043750000e+002	 1.03742e-002
2489	 2.3050000000e+002	 7.84103e-003
2490	 2.3056250000e+002	 3.76254e-003
2491	 2.3062500000e+002	 5.28575e-003
2492	 2.3068750000e+002	 7.34392e-003
2493	 2.3075000000e+002	 5.48684e-003
2494	 2.3081250000e+002	 6.72573e-003
2495	 2.3087500000e+002	 7.13037e-003
2496	 2.3093750000e+002	 1.04025e-002
2497	 2.3100000000e+002	 1.19388e-002
2498	 2.3106250000e+002	 8.99779e-003
2499	 2.3112500000e+002	 1.03973e-002
2500	 2.3118750000e+002	 1.05540e-002
2501	 2.3125000000e+002	 9.80789e-003
2502	 2.3131250000e+002	 8.33174e-003
2503	 2.3137500000e+002	 1.15916e-002
2504	 2.3143750000e+002	 1.86087e-002
2505	 2.3150000000e+002	 2.21842e-002
2506	 2.3156250000e+002	 1.17198e-002
2507	 2.3162500000e+002	 1.39002e-002
2508	 2.3168750000e+002	 2.15399e-002
2509	 2.3175000000e+002	 1.49753e-002
2510	 2.3181250000e+002	 1.11407e-002
2511	 2.3187500000e+002	 1.20404e-002
2512	 2.3193750000e+002	 7.35602e-003
2513	 2.3200000000e+002	 3.08234e-003
2514	 2.3206250000e+002	 3.32310e-003
2515	 2.3212500000e+002	 3.68384e-003
2516	 2.3218750000e+002	 7.49277e-003
2517	 2.3225000000e+002	 1.45687e-002
2518	 2.3231250000e+002	 1.56069e-002
2519	 2.3237500000e+002	 1.61706e-002
2520	 2.3243750000e+002	 1.11861e-002
2521	 2.3250000000e+002	 9.54350e-003
2522	 2.3256250000e+002	 1.43083e-002
2523	 2.3262500000e+002	 1.22331e-002
2524	 2.3268750000e+002	 8.05091e-003
2525	 2.3275000000e+002	 3.86389e-003
2526	 2.3281250000e+002	 4.83158e-003
2527	 2.3287500000e+002	 6.83531e-003
2528	 2.3293750000e+002	 1.04324e-002
2529	 2.3300000000e+002	 1.22937e-002
2530	 2.3306250000e+002	 4.32870e-003
2531	 2.3312500000e+002	 2.83419e-003
2532	 2.3318750000e+002	 6.71112e-003
2533	 2.3325000000e+002	 8.23223e-003
2534	 2.3331250000e+002	 1.30112e-002
2535	 2.3337500000e+002	 7.15051e-003
2536	 2.3343750000e+002	 1.31185e-002
2537	 2.3350000000e+002	 1.94754e-002
2538	 2.3356250000e+002	 1.46396e-002
2539	 2.3362500000e+002	 7.48138e-003
2540	 2.3368750000e+002	 4.43298e-003
2541	 2.3375000000e+002	 5.64902e-003
2542	 2.3381250000e+002	 6.22562e-003
2543	 2.3387500000e+002	 7.38251e-003
2544	 2.3393750000e+002	 7.55533e-003
2545	 2.3400000000e+002	 6.32461e-003
2546	 2.3406250000e+002	 5.42693e-003
2547	 2.3412500000e+002	 9.17645e-003
2548	 2.3418750000e+002	 8.37968e-003
2549	 2.3425000000e+002	 1.06209e-002
2550	 2.3431250000e+002	 9.11634e-003
2551	 2.3437500000e+002	 6.59108e-003
2552	 2.3443750000e+002	 7.65688e-003
2553	 2.3450000000e+002	 7.42964e-003
2554	 2.3456250000e+002	 1.03075e-002
2555	 2.3462500000e+002	 1.43441e-002
2556	 2.3468750000e+002	 1.16760e-002
2557	 2.3475000000e+002	 9.62953e-003
2558	 2.3481250000e+002	 1.26313e-002
2559	 2.3487500000e+002	 7.18402e-003
2560	 2.3493750000e+002	 1.16680e-002
2561	 2.3500000000e+002	 6.61345e-003
2562	 2.3506250000e+002	 7.08867e-003
2563	 2.3512500000e+002	 9.23355e-003
2564	 2.3518750000e+002	 7.14429e-003
2565	 2.3525000000e+002	 8.00520e-003
2566	 2.3531250000e+002	 8.87646e-003
2567	 2.3537500000e+002	 6.83937e-003
2568	 2.3543750000e+002	 8.59465e-003
2569	 2.3550000000e+002	 1.76374e-002
2570	 2.3556250000e+002	 1.78359e-002
2571	 2.3562500000e+002	 8.21906e-003
2572	 2.3568750000e+002	 3.66201e-003
2573	 2.3575000000e+002	 7.36716e-003
2574	 2.3581250000e+002	 1.35178e-002
2575	 2.3587500000e+002	 1.16197e-002
2576	 2.3593750000e+002	 7.65385e-003
2577	 2.3600000000e+002	 3.58121e-003
2578	 2.3606250000e+002	 2.91781e-003
2579	 2.3612500000e+002	 6.36647e-003
2580	 2.3618750000e+002	 1.21573e-002
2581	 2.3625000000e+002	 7.76219e-003
2582	 2.3631250000e+002	 7.66770e-003
2583	 2.3637500000e+002	 1.01793e-002
2584	 2.3643750000e+002	 1.02611e-002
2585	 2.3650000000e+002	 8.11840e-003
2586	 2.3656250000e+002	 1.00670e-002
2587	 2.3662500000e+002	 5.41245e-003
2588	 2.3668750000e+002	 6.31300e-003
2589	 2.3675000000e+002	 9.02869e-003
2590	 2.3681250000e+002	 9.70285e-003
2591	 2.3687500000e+002	 8.27770e-003
2592	 2.3693750000e+002	 1.08278e-002
2593	 2.3700000000e+002	 1.58526e-002
2594	 2.3706250000e+002	 1.03644e-002
2595	 2.3712500000e+002	 6.67947e-003
2596	 2.3718750000e+002	 1.01658e-002
2597	 2.3725000000e+002	 9.52894e-003
2598	 2.3731250000e+002	 5.10451e-003
2599	 2.3737500000e+002	 8.22928e-003
2600	 2.3743750000e+002	 9.85019e-003
2601	 2.3750000000e+002	 7.15987e-003
2602	 2.3756250000e+002	 5.64801e-003
2603	 2.3762500000e+002	 8.85798e-003
2604	 2.3768750000e+002	 1.27283e-002
2605	 2.3775000000e+002	 9.38318e-003
2606	 2.3781250000e+002	 1.08203e-002
2607	 2.3787500000e+002	 1.58221e-002
2608	 2.3793750000e+002	 7.31886e-003
2609	 2.3800000000e+002	 6.25942e-003
2610	 2.3806250000e+002	 9.13695e-003
2611	 2.3812500000e+002	 1.22721e-002
2612	 2.3818750000e+002	 8.35588e-003
2613	 2.3825000000e+002	 9.69118e-003
2614	 2.3831250000e+002	 6.76938e-003
2615	 2.3837500000e+002	 4.43586e-003
2616	 2.3843750000e+002	 3.47490e-003
2617	 2.3850000000e+002	 4.34216e-003
2618	 2.3856250000e+002	 4.78619e-003
2619	 2.3862500000e+002	 6.69892e-003
2620	 2.3868750000e+002	 8.74481e-003
2621	 2.3875000000e+002	 8.75612e-003
2622	 2.3881250000e+002	 1.02374e-002
2623	 2.3887500000e+002	 7.01060e-003
2624	 2.3893750000e+002	 8.30065e-003
2625	 2.3900000000e+002	 6.82611e-003
2626	 2.3906250000e+002	 1.09401e-002
2627	 2.3912500000e+002	 1.33349e-002
2628	 2.3918750000e+002	 1.09271e-002
2629	 2.3925000000e+002	 7.04215e-003
2630	 2.3931250000e+002	 6.17177e-003
2631	 2.3937500000e+002	 6.91336e-003
2632	 2.3943750000e+002	 9.49279e-003
2633	 2.3950000000e+002	 1.20951e-002
2634	 2.3956250000e+002	 8.16624e-003
2635	 2.3962500000e+002	 9.89229e-003
2636	 2.3968750000e+002	 1.11671e-002
2637	 2.3975000000e+002	 1.04505e-002
2638	 2.3981250000e+002	 1.47880e-002
2639	 2.3987500000e+002	 8.17549e-003
2640	 2.3993750000e+002	 1.46764e-002
2641	 2.4000000000e+002	 1.54666e-002
2642	 2.4006250000e+002	 7.11646e-003
2643	 2.4012500000e+002	 1.71348e-002
2644	 2.4018750000e+002	 1.32130e-002
2645	 2.4025000000e+002	 3.15034e-003
2646	 2.4031250000e+002	 3.84440e-003
2647	 2.4037500000e+002	 5.03107e-003
2648	 2.4043750000e+002	 4.90982e-003
2649	 2.4050000000e+002	 5.23875e-003
2650	 2.4056250000e+002	 9.03773e-003
2651	 2.4062500000e+002	 7.43875e-003
2652	 2.4068750000e+002	 4.13832e-003
2653	 2.4075000000e+002	 9.37831e-003
2654	 2.4081250000e+002	 1.15156e-002
2655	 2.4087500000e+002	 1.07195e-002
2656	 2.4093750000e+002	 1.47102e-002
2657	 2.4100000000e+002	 1.48423e-002
2658	 2.4106250000e+002	 9.78652e-003
2659	 2.4112500000e+002	 4.96030e-003
2660	 2.4118750000e+002	 5.75059e-003
2661	 2.4125000000e+002	 5.43511e-003
2662	 2.4131250000e+002	 6.62629e-003
2663	 2.4137500000e+002	 1.10858e-002
2664	 2.4143750000e+002	 1.13688e-002
2665	 2.4150000000e+002	 1.19198e-002
2666	 2.4156250000e+002	 7.08945e-003
2667	 2.4162500000e+002	 3.38184e-003
2668	 2.4168750000e+002	 6.36058e-003
2669	 2.4175000000e+002	 9.13419e-003
2670	 2.4181250000e+002	 4.28577e-003
2671	 2.4187500000e+002	 8.05493e-003
2672	 2.4193750000e+002	 9.31052e-003
2673	 2.4200000000e+002	 8.54110e-003
2674	 2.4206250000e+002	 7.14793e-003
2675	 2.4212500000e+002	 8.26848e-003
2676	 2.4218750000e+002	 8.53808e-003
2677	 2.4225000000e+002	 3.13448e-003
2678	 2.4231250000e+002	 3.33680e-003
2679	 2.4237500000e+002	 7.21802e-003
2680	 2.4243750000e+002	 1.00165e-002
2681	 2.4250000000e+002	 4.44158e-003
2682	 2.4256250000e+002	 4.42644e-003
2683	 2.4262500000e+002	 6.33396e-003
2684	 2.4268750000e+002	 4.62146e-003
2685	 2.4275000000e+002	 3.13192e-003
2686	 2.4281250000e+002	 5.21149e-003
2687	 2.4287500000e+002	 4.44065e-003
2688	 2.4293750000e+002	 4.84409e-003
2689	 2.4300000000e+002	 7.46056e-003
2690	 2.4306250000e+002	 1.15898e-002
2691	 2.4312500000e+002	 1.36606e-002
2692	 2.4318750000e+002	 7.89920e-003
2693	 2.4325000000e+002	 7.59569e-003
2694	 2.4331250000e+002	 4.51243e-003
2695	 2.4337500000e+002	 7.32674e-003
2696	 2.4343750000e+002	 1.11256e-002
2697	 2.4350000000e+002	 7.39619e-003
2698	 2.4356250000e+002	 9.76304e-003
2699	 2.4362500000e+002	 8.58072e-003
2700	 2.4368750000e+002	 8.36461e-003
2701	 2.4375000000e+002	 1.20111e-002
2702	 2.4381250000e+002	 7.80424e-003
2703	 2.4387500000e+002	 6.42011e-003
2704	 2.4393750000e+002	 4.41300e-003
2705	 2.4400000000e+002	 6.84613e-003
2706	 2.4406250000e+002	 9.33206e-003
2707	 2.4412500000e+002	 8.65989e-003
2708	 2.4418750000e+002	 7.40886e-003
2709	 2.4425000000e+002	 6.25955e-003
2710	 2.4431250000e+002	 9.86235e-003
2711	 2.4437500000e+002	 8.42314e-003
2712	 2.4443750000e+002	 1.00234e-002
2713	 2.4450000000e+002	 1.21649e-002
2714	 2.4456250000e+002	 1.07889e-002
2715	 2.4462500000e+002	 8.28511e-003
2716	 2.4468750000e+002	 7.16444e-003
2717	 2.4475000000e+002	 9.18687e-003
2718	 2.4481250000e+002	 7.41878e-003
2719	 2.4487500000e+002	 7.22172e-003
2720	 2.4493750000e+002	 1.38048e-002
2721	 2.4500000000e+002	 1.11063e-002
2722	 2.4506250000e+002	 1.00325e-002
2723	 2.4512500000e+002	 1.17020e-002
2724	 2.4518750000e+002	 1.31769e-002
2725	 2.4525000000e+002	 5.10450e-003
2726	 2.4531250000e+002	 5.15501e-003
2727	 2.4537500000e+002	 9.07254e-003
2728	 2.4543750000e+002	 1.06994e-002
2729	 2.4550000000e+002	 1.54174e-002
2730	 2.4556250000e+002	 1.07773e-002
2731	 2.4562500000e+002	 9.96675e-003
2732	 2.4568750000e+002	 1.58802e-002
2733	 2.4575000000e+002	 1.23913e-002
2734	 2.4581250000e+002	 8.61061e-003
2735	 2.4587500000e+002	 6.37393e-003
2736	 2.4593750000e+002	 7.63745e-003
2737	 2.4600000000e+002	 7.33219e-003
2738	 2.4606250000e+002	 7.42785e-003
2739	 2.4612500000e+002	 7.59325e-003
2740	 2.4618750000e+002	 9.08812e-003
2741	 2.4625000000e+002	 8.68528e-003
2742	 2.4631250000e+002	 1.10229e-002
2743	 2.4637500000e+002	 8.63049e-003
2744	 2.4643750000e+002	 5.27372e-003
2745	 2.4650000000e+002	 6.18869e-003
2746	 2.4656250000e+002	 1.06478e-002
2747	 2.4662500000e+002	 1.22706e-002
2748	 2.4668750000e+002	 6.82125e-003
2749	 2.4675000000e+002	 8.24892e-003
2750	 2.4681250000e+002	 9.03700e-003
2751	 2.4687500000e+002	 1.17419e-002
2752	 2.4693750000e+002	 1.14461e-002
2753	 2.4700000000e+002	 1.44357e-002
2754	 2.4706250000e+002	 1.65367e-002
2755	 2.4712500000e+002	 1.43379e-002
2756	 2.4718750000e+002	 1.03558e-002
2757	 2.4725000000e+002	 5.65172e-003
2758	 2.4731250000e+002	 7.81762e-003
2759	 2.4737500000e+002	 8.34215e-003
2760	 2.4743750000e+002	 1.08175e-002
2761	 2.4750000000e+002	 1.84761e-002
2762	 2.4756250000e+002	 1.14105e-002
2763	 2.4762500000e+002	 1.14794e-002
2764	 2.4768750000e+002	 1.01863e-002
2765	 2.4775000000e+002	 9.25776e-003
2766	 2.4781250000e+002	 8.75976e-003
2767	 2.4787500000e+002	 7.67853e-003
2768	 2.4793750000e+002	 5.57485e-003
2769	 2.4800000000e+002	 6.78976e-003
2770	 2.4806250000e+002	 6.46342e-003
2771	 2.4812500000e+002	 6.68878e-003
2772	 2.4818750000e+002	 6.25330e-003
2773	 2.4825000000e+002	 5.52438e-003
2774	 2.4831250000e+002	 5.54658e-003
2775	 2.4837500000e+002	 5.96657e-003
2776	 2.4843750000e+002	 4.08898e-003
2777	 2.4850000000e+002	 2.84252e-003
2778	 2.4856250000e+002	 6.53123e-003
2779	 2.4862500000e+002	 7.29887e-003
2780	 2.4868750000e+002	 1.01724e-002
2781	 2.4875000000e+002	 1.33018e-002
2782	 2.4881250000e+002	 6.40262e-003
2783	 2.4887500000e+002	 6.53632e-003
2784	 2.4893750000e+002	 1.06301e-002
2785	 2.4900000000e+002	 7.01937e-003
2786	 2.4906250000e+002	 1.31639e-002
2787	 2.4912500000e+002	 1.14841e-002
2788	 2.4918750000e+002	 4.34301e-003
2789	 2.4925000000e+002	 4.38148e-003
2790	 2.4931250000e+002	 6.34992e-003
2791	 2.4937500000e+002	 6.38858e-003
2792	 2.4943750000e+002	 9.83123e-003
2793	 2.4950000000e+002	 1.22321e-002
2794	 2.4956250000e+002	 6.40911e-003
2795	 2.4962500000e+002	 2.96806e-003
2796	 2.4968750000e+002	 5.96307e-003
2797	 2.4975000000e+002	 5.65388e-003
2798	 2.4981250000e+002	 6.44049e-003
2799	 2.4987500000e+002	 5.50035e-003
2800	 2.4993750000e+002	 9.12489e-003
2801	 2.5000000000e+002	 1.43608e-002
2802	 2.5006250000e+002	 1.22102e-002
2803	 2.5012500000e+002	 1.23601e-002
2804	 2.5018750000e+002	 1.34913e-002
2805	 2.5025000000e+002	 7.25976e-003
2806	 2.5031250000e+002	 8.25642e-003
2807	 2.5037500000e+002	 9.27236e-003
2808	 2.5043750000e+002	 1.37797e-002
2809	 2.5050000000e+002	 1.11431e-002
2810	 2.5056250000e+002	 1.72117e-002
2811	 2.5062500000e+002	 1.05580e-002
2812	 2.5068750000e+002	 8.64645e-003
2813	 2.5075000000e+002	 8.35012e-003
2814	 2.5081250000e+002	 1.12977e-002
2815	 2.5087500000e+002	 2.19703e-002
2816	 2.5093750000e+002	 1.13343e-002
2817	 2.5100000000e+002	 5.99079e-003
2818	 2.5106250000e+002	 1.30513e-002
2819	 2.5112500000e+002	 1.57647e-002
2820	 2.5118750000e+002	 1.11953e-002
2821	 2.5125000000e+002	 9.31885e-003
2822	 2.5131250000e+002	 1.53534e-002
2823	 2.5137500000e+002	 1.77716e-002
2824	 2.5143750000e+002	 1.25142e-002
2825	 2.5150000000e+002	 1.29973e-002
2826	 2.5156250000e+002	 1.00493e-002
2827	 2.5162500000e+002	 1.19535e-002
2828	 2.5168750000e+002	 1.28348e-002
2829	 2.5175000000e+002	 8.03889e-003
2830	 2.5181250000e+002	 9.93467e-003
2831	 2.5187500000e+002	 6.83214e-003
2832	 2.5193750000e+002	 1.15887e-002
2833	 2.5200000000e+002	 1.81645e-002
2834	 2.5206250000e+002	 1.65061e-002
2835	 2.5212500000e+002	 1.11498e-002
2836	 2.5218750000e+002	 1.46933e-002
2837	 2.5225000000e+002	 1.59193e-002
2838	 2.5231250000e+002	 2.53267e-002
2839	 2.5237500000e+002	 1.12848e-002
2840	 2.5243750000e+002	 1.36011e-002
2841	 2.5250000000e+002	 2.08070e-002
2842	 2.5256250000e+002	 1.21271e-002
2843	 2.5262500000e+002	 1.13139e-002
2844	 2.5268750000e+002	 1.26224e-002
2845	 2.5275000000e+002	 1.67279e-002
2846	 2.5281250000e+002	 1.32373e-002
2847	 2.5287500000e+002	 1.11025e-002
2848	 2.5293750000e+002	 1.79789e-002
2849	 2.5300000000e+002	 1.10874e-002
2850	 2.5306250000e+002	 2.16234e-002
2851	 2.5312500000e+002	 2.82122e-002
2852	 2.5318750000e+002	 1.54144e-002
2853	 2.5325000000e+002	 1.29011e-002
2854	 2.5331250000e+002	 1.89243e-002
2855	 2.5337500000e+002	 1.42913e-002
2856	 2.5343750000e+002	 1.23065e-002
2857	 2.5350000000e+002	 1.34061e-002
2858	 2.5356250000e+002	 1.75190e-002
2859	 2.5362500000e+002	 2.51394e-002
2860	 2.5368750000e+002	 2.61366e-002
2861	 2.5375000000e+002	 2.22400e-002
2862	 2.5381250000e+002	 1.84784e-002
2863	 2.5387500000e+002	 4.79046e-003
2864	 2.5393750000e+002	 5.33246e-003
2865	 2.5400000000e+002	 2.06169e-002
2866	 2.5406250000e+002	 1.73161e-002
2867	 2.5412500000e+002	 7.46126e-003
2868	 2.5418750000e+002	 4.55159e-003
2869	 2.5425000000e+002	 5.73463e-003
2870	 2.5431250000e+002	 1.80968e-002
2871	 2.5437500000e+002	 2.51117e-002
2872	 2.5443750000e+002	 2.37341e-002
2873	 2.5450000000e+002	 1.83443e-002
2874	 2.5456250000e+002	 1.47363e-002
2875	 2.5462500000e+002	 1.48610e-002
2876	 2.5468750000e+002	 9.95487e-003
2877	 2.5475000000e+002	 1.07001e-002
2878	 2.5481250000e+002	 1.78944e-002
2879	 2.5487500000e+002	 2.02578e-002
2880	 2.5493750000e+002	 1.51542e-002
2881	 2.5500000000e+002	 2.21485e-002
2882	 2.5506250000e+002	 1.78904e-002
2883	 2.5512500000e+002	 2.91221e-002
2884	 2.5518750000e+002	 1.83127e-002
2885	 2.5525000000e+002	 1.16283e-002
2886	 2.5531250000e+002	 1.17761e-002
2887	 2.5537500000e+002	 8.74128e-003
2888	 2.5543750000e+002	 8.54182e-003
2889	 2.5550000000e+002	 1.15536e-002
2890	 2.5556250000e+002	 1.81557e-002
2891	 2.5562500000e+002	 1.54260e-002
2892	 2.5568750000e+002	 2.54589e-002
2893	 2.5575000000e+002	 2.62547e-002
2894	 2.5581250000e+002	 2.69212e-002
2895	 2.5587500000e+002	 2.28540e-002
2896	 2.5593750000e+002	 1.04621e-002
2897	 2.5600000000e+002	 9.41041e-003
2898	 2.5606250000e+002	 9.70298e-003
2899	 2.5612500000e+002	 1.58116e-002
2900	 2.5618750000e+002	 1.78982e-002
2901	 2.5625000000e+002	 2.07020e-002
2902	 2.5631250000e+002	 2.39616e-002
2903	 2.5637500000e+002	 1.30112e-002
2904	 2.5643750000e+002	 1.95807e-002
2905	 2.5650000000e+002	 1.61950e-002
2906	 2.5656250000e+002	 2.57013e-002
2907	 2.5662500000e+002	 2.54650e-002
2908	 2.5668750000e+002	 2.16734e-002
2909	 2.5675000000e+002	 1.46054e-002
2910	 2.5681250000e+002	 9.01340e-003
2911	 2.5687500000e+002	 2.62420e-002
2912	 2.5693750000e+002	 3.33275e-002
2913	 2.5700000000e+002	 3.10743e-002
2914	 2.5706250000e+002	 3.45974e-002
2915	 2.5712500000e+002	 3.53040e-002
2916	 2.5718750000e+002	 1.78257e-002
2917	 2.5725000000e+002	 1.88338e-002
2918	 2.5731250000e+002	 2.46752e-002
2919	 2.5737500000e+002	 1.78213e-002
2920	 2.5743750000e+002	 1.76340e-002
2921	 2.5750000000e+002	 2.71575e-002
2922	 2.5756250000e+002	 1.38969e-002
2923	 2.5762500000e+002	 2.03400e-002
2924	 2.5768750000e+002	 2.86806e-002
2925	 2.5775000000e+002	 3.36228e-002
2926	 2.5781250000e+002	 3.30385e-002
2927	 2.5787500000e+002	 3.21398e-002
2928	 2.5793750000e+002	 3.13496e-002
2929	 2.5800000000e+002	 1.63227e-002
2930	 2.5806250000e+002	 1.03278e-002
2931	 2.5812500000e+002	 1.86970e-002
2932	 2.5818750000e+002	 3.45962e-002
2933	 2.5825000000e+002	 4.75988e-002
2934	 2.5831250000e+002	 4.93377e-002
2935	 2.5837500000e+002	 3.17130e-002
2936	 2.5843750000e+002	 3.35477e-002
2937	 2.5850000000e+002	 4.33488e-002
2938	 2.5856250000e+002	 4.14734e-002
2939	 2.5862500000e+002	 7.50415e-002
2940	 2.5868750000e+002	 6.35536e-002
2941	 2.5875000000e+002	 3.03686e-002
2942	 2.5881250000e+002	 3.89235e-002
2943	 2.5887500000e+002	 4.87000e-002
2944	 2.5893750000e+002	 3.55536e-002
2945	 2.5900000000e+002	 3.62686e-002
2946	 2.5906250000e+002	 2.67165e-002
2947	 2.5912500000e+002	 4.65523e-002
2948	 2.5918750000e+002	 7.13967e-002
2949	 2.5925000000e+002	 6.09731e-002
2950	 2.5931250000e+002	 4.14779e-002
2951	 2.5937500000e+002	 4.70233e-002
2952	 2.5943750000e+002	 3.68948e-002
2953	 2.5950000000e+002	 3.13435e-002
2954	 2.5956250000e+002	 2.80942e-002
2955	 2.5962500000e+002	 2.59320e-002
2956	 2.5968750000e+002	 4.05949e-002
2957	 2.5975000000e+002	 4.70431e-002
2958	 2.5981250000e+002	 6.11535e-002
2959	 2.5987500000e+002	 9.80245e-002
2960	 2.5993750000e+002	 7.44941e-002
2961	 2.6000000000e+002	 8.92825e-002
2962	 2.6006250000e+002	 1.06316e-001
2963	 2.6012500000e+002	 6.71952e-002
2964	 2.6018750000e+002	 2.25021e-002
2965	 2.6025000000e+002	 3.21745e-002
2966	 2.6031250000e+002	 3.73220e-002
2967	 2.6037500000e+002	 5.29681e-002
2968	 2.6043750000e+002	 3.65687e-002
2969	 2.6050000000e+002	 4.24419e-002
2970	 2.6056250000e+002	 4.16381e-002
2971	 2.6062500000e+002	 4.28146e-002
2972	 2.6068750000e+002	 7.24111e-002
2973	 2.6075000000e+002	 7.49752e-002
2974	 2.6081250000e+002	 1.02569e-001
2975	 2.6087500000e+002	 6.99372e-002
2976	 2.6093750000e+002	 4.65633e-002
2977	 2.6100000000e+002	 4.83173e-002
2978	 2.6106250000e+002	 4.33762e-002
2979	 2.6112500000e+002	 2.22663e-002
2980	 2.6118750000e+002	 4.69826e-002
2981	 2.6125000000e+002	 9.31485e-002
2982	 2.6131250000e+002	 9.03557e-002
2983	 2.6137500000e+002	 3.36300e-002
2984	 2.6143750000e+002	 4.99758e-002
2985	 2.6150000000e+002	 9.52609e-002
2986	 2.6156250000e+002	 5.62344e-002
2987	 2.6162500000e+002	 4.86285e-002
2988	 2.6168750000e+002	 7.15342e-002
2989	 2.6175000000e+002	 7.35544e-002
2990	 2.6181250000e+002	 8.08749e-002
2991	 2.6187500000e+002	 7.09127e-002
2992	 2.6193750000e+002	 5.85887e-002
2993	 2.6200000000e+002	 3.52392e-002
2994	 2.6206250000e+002	 4.10384e-002
2995	 2.6212500000e+002	 7.57616e-002
2996	 2.6218750000e+002	 6.98985e-002
2997	 2.6225000000e+002	 7.88491e-002
2998	 2.6231250000e+002	 1.29835e-001
2999	 2.6237500000e+002	 7.17614e-002
3000	 2.6243750000e+002	 4.24839e-002
3001	 2.6250000000e+002	 1.09889e-001
3002	 2.6256250000e+002	 1.80949e-001
3003	 2.6262500000e+002	 1.44851e-001
3004	 2.6268750000e+002	 9.90279e-002
3005	 2.6275000000e+002	 1.07437e-001
3006	 2.6281250000e+002	 1.77875e-001
3007	 2.6287500000e+002	 9.98242e-002
3008	 2.6293750000e+002	 6.85110e-002
3009	 2.6300000000e+002	 7.82975e-002
3010	 2.6306250000e+002	 9.64117e-002
3011	 2.6312500000e+002	 2.56036e-001
3012	 2.6318750000e+002	 2.25268e-001
3013	 2.6325000000e+002	 1.07918e-001
3014	 2.6331250000e+002	 4.70009e-002
3015	 2.6337500000e+002	 6.94032e-002
3016	 2.6343750000e+002	 9.95417e-002
3017	 2.6350000000e+002	 8.68478e-002
3018	 2.6356250000e+002	 3.44881e-002
3019	 2.6362500000e+002	 8.18467e-002
3020	 2.6368750000e+002	 1.34579e-001
3021	 2.6375000000e+002	 1.08524e-001
3022	 2.6381250000e+002	 2.00465e-001
3023	 2.6387500000e+002	 2.62980e-001
3024	 2.6393750000e+002	 2.23811e-001
3025	 2.6400000000e+002	 2.32147e-001
3026	 2.6406250000e+002	 1.57927e-001
3027	 2.6412500000e+002	 1.39275e-001
3028	 2.6418750000e+002	 1.58380e-001
3029	 2.6425000000e+002	 1.78518e-001
3030	 2.6431250000e+002	 2.11701e-001
3031	 2.6437500000e+002	 1.06044e-001
3032	 2.6443750000e+002	 6.68720e-002
3033	 2.6450000000e+002	 1.39770e-001
3034	 2.6456250000e+002	 2.28778e-001
3035	 2.6462500000e+002	 2.10172e-001
3036	 2.6468750000e+002	 2.08800e-001
3037	 2.6475000000e+002	 1.24529e-001
3038	 2.6481250000e+002	 3.14062e-001
3039	 2.6487500000e+002	 5.12176e-001
3040	 2.6493750000e+002	 2.99517e-001
3041	 2.6500000000e+002	 2.73756e-001
3042	 2.6506250000e+002	 1.50204e-001
3043	 2.6512500000e+002	 2.14457e-001
3044	 2.6518750000e+002	 1.74126e-001
3045	 2.6525000000e+002	 1.33119e-001
3046	 2.6531250000e+002	 1.77924e-001
3047	 2.6537500000e+002	 2.35656e-001
3048	 2.6543750000e+002	 1.21283e-001
3049	 2.6550000000e+002	 1.55592e-001
3050	 2.6556250000e+002	 2.05748e-001
3051	 2.6562500000e+002	 1.92249e-001
3052	 2.6568750000e+002	 1.20178e-001
3053	 2.6575000000e+002	 1.26513e-001
3054	 2.6581250000e+002	 1.30887e-001
3055	 2.6587500000e+002	 1.28170e-001
3056	 2.6593750000e+002	 2.71877e-001
3057	 2.6600000000e+002	 3.32568e-001
3058	 2.6606250000e+002	 2.55346e-001
3059	 2.6612500000e+002	 3.32827e-001
3060	 2.6618750000e+002	 3.32095e-001
3061	 2.6625000000e+002	 2.35435e-001
3062	 2.6631250000e+002	 3.32654e-001
3063	 2.6637500000e+002	 3.38906e-001
3064	 2.6643750000e+002	 3.13017e-001
3065	 2.6650000000e+002	 3.93008e-001
3066	 2.6656250000e+002	 3.38125e-001
3067	 2.6662500000e+002	 4.47711e-001
3068	 2.6668750000e+002	 3.23133e-001
3069	 2.6675000000e+002	 2.90928e-001
3070	 2.6681250000e+002	 4.08706e-001
3071	 2.6687500000e+002	 3.06735e-001
3072	 2.6693750000e+002	 1.82298e-001
3073	 2.6700000000e+002	 2.81860e-001
3074	 2.6706250000e+002	 3.09375e-001
3075	 2.6712500000e+002	 2.80443e-001
3076	 2.6718750000e+002	 3.06619e-001
3077	 2.6725000000e+002	 2.93291e-001
3078	 2.6731250000e+002	 2.17021e-001
3079	 2.6737500000e+002	 2.65722e-001
3080	 2.6743750000e+002	 4.78011e-001
3081	 2.6750000000e+002	 3.10506e-001
3082	 2.6756250000e+002	 3.67286e-001
3083	 2.6762500000e+002	 5.40352e-001
3084	 2.6768750000e+002	 5.05977e-001
3085	 2.6775000000e+002	 3.14669e-001
3086	 2.6781250000e+002	 2.10439e-001
3087	 2.6787500000e+002	 2.12664e-001
3088	 2.6793750000e+002	 1.56693e-001
3089	 2.6800000000e+002	 1.81879e-001
3090	 2.6806250000e+002	 1.74977e-001
3091	 2.6812500000e+002	 2.07215e-001
3092	 2.6818750000e+002	 3.18840e-001
3093	 2.6825000000e+002	 2.87672e-001
3094	 2.6831250000e+002	 1.83105e-001
3095	 2.6837500000e+002	 3.46923e-001
3096	 2.6843750000e+002	 3.25384e-001
3097	 2.6850000000e+002	 2.62272e-001
3098	 2.6856250000e+002	 2.06893e-001
3099	 2.6862500000e+002	 3.28018e-001
3100	 2.6868750000e+002	 4.04731e-001
3101	 2.6875000000e+002	 2.56509e-001
3102	 2.6881250000e+002	 1.92521e-001
3103	 2.6887500000e+002	 1.78327e-001
3104	 2.6893750000e+002	 2.73798e-001
3105	 2.6900000000e+002	 2.48385e-001
3106	 2.6906250000e+002	 1.60434e-001
3107	 2.6912500000e+002	 1.95823e-001
3108	 2.6918750000e+002	 3.14476e-001
3109	 2.6925000000e+002	 2.18206e-001
3110	 2.6931250000e+002	 1.86813e-001
3111	 2.6937500000e+002	 1.41679e-001
3112	 2.6943750000e+002	 8.37616e-002
3113	 2.6950000000e+002	 1.38460e-001
3114	 2.6956250000e+002	 1.17652e-001
3115	 2.6962500000e+002	 8.58748e-002
3116	 2.6968750000e+002	 1.05542e-001
3117	 2.6975000000e+002	 9.13248e-002
3118	 2.6981250000e+002	 7.44612e-002
3119	 2.6987500000e+002	 1.15349e-001
3120	 2.6993750000e+002	 1.41676e-001
3121	 2.7000000000e+002	 1.77578e-001
3122	 2.7006250000e+002	 1.65547e-001
3123	 2.7012500000e+002	 1.55476e-001
3124	 2.7018750000e+002	 1.22768e-001
3125	 2.7025000000e+002	 8.61274e-002
3126	 2.7031250000e+002	 5.35661e-002
3127	 2.7037500000e+002	 6.93590e-002
3128	 2.7043750000e+002	 5.95879e-002
3129	 2.7050000000e+002	 6.58990e-002
3130	 2.7056250000e+002	 5.17258e-002
3131	 2.7062500000e+002	 3.89155e-002
3132	 2.7068750000e+002	 5.49860e-002
3133	 2.7075000000e+002	 3.78385e-002
3134	 2.7081250000e+002	 5.02726e-002
3135	 2.7087500000e+002	 6.12922e-002
3136	 2.7093750000e+002	 9.79422e-002
3137	 2.7100000000e+002	 1.36873e-001
3138	 2.7106250000e+002	 1.06047e-001
3139	 2.7112500000e+002	 1.59670e-001
3140	 2.7118750000e+002	 1.41267e-001
3141	 2.7125000000e+002	 7.98402e-002
3142	 2.7131250000e+002	 5.22733e-002
3143	 2.7137500000e+002	 8.14035e-002
3144	 2.7143750000e+002	 4.86364e-002
3145	 2.7150000000e+002	 4.13567e-002
3146	 2.7156250000e+002	 5.00938e-002
3147	 2.7162500000e+002	 8.68284e-002
3148	 2.7168750000e+002	 6.70119e-002
3149	 2.7175000000e+002	 5.44988e-002
3150	 2.7181250000e+002	 6.23814e-002
3151	 2.7187500000e+002	 8.23335e-002
3152	 2.7193750000e+002	 6.31945e-002
3153	 2.7200000000e+002	 5.63199e-002
3154	 2.7206250000e+002	 4.76108e-002
3155	 2.7212500000e+002	 1.83815e-002
3156	 2.7218750000e+002	 3.47426e-002
3157	 2.7225000000e+002	 3.85918e-002
3158	 2.7231250000e+002	 5.75973e-002
3159	 2.7237500000e+002	 8.15129e-002
3160	 2.7243750000e+002	 3.63049e-002
3161	 2.7250000000e+002	 3.23811e-002
3162	 2.7256250000e+002	 3.11108e-002
3163	 2.7262500000e+002	 2.66032e-002
3164	 2.7268750000e+002	 3.49670e-002
3165	 2.7275000000e+002	 2.93348e-002
3166	 2.7281250000e+002	 5.04437e-002
3167	 2.7287500000e+002	 5.32978e-002
3168	 2.7293750000e+002	 6.23606e-002
3169	 2.7300000000e+002	 7.36078e-002
3170	 2.7306250000e+002	 5.00262e-002
3171	 2.7312500000e+002	 3.07921e-002
3172	 2.7318750000e+002	 3.16979e-002
3173	 2.7325000000e+002	 3.70173e-002
3174	 2.7331250000e+002	 4.64187e-002
3175	 2.7337500000e+002	 2.73532e-002
3176	 2.7343750000e+002	 3.75293e-002
3177	 2.7350000000e+002	 4.88219e-002
3178	 2.7356250000e+002	 6.80802e-002
3179	 2.7362500000e+002	 7.29458e-002
3180	 2.7368750000e+002	 3.20294e-002
3181	 2.7375000000e+002	 4.41754e-002
3182	 2.7381250000e+002	 6.43921e-002
3183	 2.7387500000e+002	 4.87827e-002
3184	 2.7393750000e+002	 2.80934e-002
3185	 2.7400000000e+002	 1.39011e-002
3186	 2.7406250000e+002	 2.66489e-002
3187	 2.7412500000e+002	 2.36989e-002
3188	 2.7418750000e+002	 2.44218e-002
3189	 2.7425000000e+002	 2.77513e-002
3190	 2.7431250000e+002	 1.66592e-002
3191	 2.7437500000e+002	 3.61023e-002
3192	 2.7443750000e+002	 9.52272e-002
3193	 2.7450000000e+002	 8.70954e-002
3194	 2.7456250000e+002	 4.08262e-002
3195	 2.7462500000e+002	 3.61191e-002
3196	 2.7468750000e+002	 3.94544e-002
3197	 2.7475000000e+002	 3.58915e-002
3198	 2.7481250000e+002	 2.30652e-002
3199	 2.7487500000e+002	 2.00063e-002
3200	 2.7493750000e+002	 1.82773e-002
3201	 2.7500000000e+002	 2.56370e-002
TagsBegin:	 	 
OverLoad:	 	False
AverageNumber: []	 	 6.10000e+001
OverLoadRatio: []	 	 1.19209e-007
TagsEnd:	 	 
TagScalesBegin:	 	 
TagScalesEnd:	 	 
